Created As Omnic File,PLAS 256
Raman Shift / cm-1,INT
3418.58,-28
3417.61,-27
3416.65,-25
3415.68,-22
3414.72,-19
3413.76,-16
3412.79,-16
3411.83,-19
3410.86,-20
3409.90,-20
3408.94,-15
3407.97,-6
3407.01,-0
3406.04,-4
3405.08,-8
3404.11,-1
3403.15,1
3402.19,3
3401.22,-6
3400.26,-17
3399.29,-20
3398.33,-18
3397.36,-15
3396.40,-13
3395.44,-10
3394.47,-6
3393.51,-1
3392.54,4
3391.58,8
3390.61,10
3389.65,7
3388.69,-5
3387.72,-12
3386.76,-10
3385.79,-3
3384.83,1
3383.87,-5
3382.90,-8
3381.94,-3
3380.97,-3
3380.01,-9
3379.04,-13
3378.08,-6
3377.12,-4
3376.15,-3
3375.19,11
3374.22,21
3373.26,15
3372.29,3
3371.33,-3
3370.37,-6
3369.40,-7
3368.44,-4
3367.47,0
3366.51,-2
3365.54,-10
3364.58,-8
3363.62,-2
3362.65,5
3361.69,11
3360.72,7
3359.76,-0
3358.80,4
3357.83,12
3356.87,18
3355.90,16
3354.94,-1
3353.97,0
3353.01,16
3352.05,15
3351.08,4
3350.12,3
3349.15,9
3348.19,11
3347.22,12
3346.26,13
3345.30,16
3344.33,17
3343.37,13
3342.40,13
3341.44,11
3340.47,1
3339.51,-2
3338.55,3
3337.58,7
3336.62,9
3335.65,5
3334.69,-2
3333.73,4
3332.76,17
3331.80,20
3330.83,17
3329.87,7
3328.90,-8
3327.94,-18
3326.98,-17
3326.01,-8
3325.05,1
3324.08,1
3323.12,1
3322.15,8
3321.19,5
3320.23,-5
3319.26,-4
3318.30,1
3317.33,1
3316.37,-4
3315.40,-4
3314.44,-0
3313.48,-4
3312.51,-9
3311.55,-7
3310.58,-4
3309.62,2
3308.66,6
3307.69,-2
3306.73,-9
3305.76,-13
3304.80,-15
3303.83,-14
3302.87,-17
3301.91,-23
3300.94,-18
3299.98,-8
3299.01,-8
3298.05,-8
3297.08,-1
3296.12,-0
3295.16,-12
3294.19,-11
3293.23,6
3292.26,16
3291.30,10
3290.33,-5
3289.37,-15
3288.41,-16
3287.44,-14
3286.48,-17
3285.51,-20
3284.55,-14
3283.59,-4
3282.62,-3
3281.66,-7
3280.69,-4
3279.73,0
3278.76,-4
3277.80,-8
3276.84,-7
3275.87,-10
3274.91,-17
3273.94,-16
3272.98,-10
3272.01,-10
3271.05,-14
3270.09,-12
3269.12,-8
3268.16,-8
3267.19,-10
3266.23,-12
3265.26,-12
3264.30,-12
3263.34,-11
3262.37,-2
3261.41,7
3260.44,8
3259.48,7
3258.51,7
3257.55,4
3256.59,-2
3255.62,-6
3254.66,-5
3253.69,-6
3252.73,-8
3251.77,-8
3250.80,-8
3249.84,-6
3248.87,-3
3247.91,-6
3246.94,-8
3245.98,0
3245.02,6
3244.05,3
3243.09,-0
3242.12,-5
3241.16,-8
3240.19,-3
3239.23,4
3238.27,8
3237.30,11
3236.34,8
3235.37,5
3234.41,5
3233.44,8
3232.48,13
3231.52,12
3230.55,8
3229.59,5
3228.62,2
3227.66,2
3226.70,1
3225.73,-9
3224.77,-13
3223.80,0
3222.84,6
3221.87,-1
3220.91,-1
3219.95,11
3218.98,21
3218.02,25
3217.05,28
3216.09,32
3215.12,37
3214.16,40
3213.20,47
3212.23,59
3211.27,74
3210.30,91
3209.34,104
3208.37,118
3207.41,136
3206.45,156
3205.48,179
3204.52,199
3203.55,210
3202.59,224
3201.63,245
3200.66,257
3199.70,255
3198.73,243
3197.77,224
3196.80,203
3195.84,183
3194.88,165
3193.91,147
3192.95,135
3191.98,127
3191.02,109
3190.05,89
3189.09,80
3188.13,73
3187.16,61
3186.20,53
3185.23,53
3184.27,53
3183.30,46
3182.34,39
3181.38,35
3180.41,32
3179.45,26
3178.48,27
3177.52,39
3176.56,47
3175.59,48
3174.63,46
3173.66,45
3172.70,50
3171.73,68
3170.77,98
3169.81,131
3168.84,158
3167.88,181
3166.91,205
3165.95,229
3164.98,244
3164.02,254
3163.06,266
3162.09,278
3161.13,281
3160.16,270
3159.20,240
3158.23,199
3157.27,165
3156.31,138
3155.34,113
3154.38,101
3153.41,94
3152.45,72
3151.49,49
3150.52,38
3149.56,38
3148.59,39
3147.63,39
3146.66,40
3145.70,42
3144.74,40
3143.77,33
3142.81,32
3141.84,34
3140.88,35
3139.91,33
3138.95,27
3137.99,22
3137.02,20
3136.06,21
3135.09,26
3134.13,31
3133.16,33
3132.20,36
3131.24,35
3130.27,36
3129.31,43
3128.34,43
3127.38,34
3126.42,30
3125.45,40
3124.49,59
3123.52,76
3122.56,81
3121.59,75
3120.63,77
3119.67,86
3118.70,92
3117.74,95
3116.77,103
3115.81,116
3114.84,129
3113.88,143
3112.92,157
3111.95,175
3110.99,201
3110.02,225
3109.06,247
3108.09,263
3107.13,271
3106.17,280
3105.20,298
3104.24,317
3103.27,330
3102.31,347
3101.34,365
3100.38,375
3099.42,379
3098.45,380
3097.49,379
3096.52,395
3095.56,422
3094.60,446
3093.63,467
3092.67,498
3091.70,539
3090.74,585
3089.77,638
3088.81,702
3087.85,768
3086.88,832
3085.92,895
3084.95,959
3083.99,1032
3083.02,1116
3082.06,1200
3081.10,1278
3080.13,1360
3079.17,1456
3078.20,1567
3077.24,1702
3076.27,1863
3075.31,2051
3074.35,2264
3073.38,2498
3072.42,2757
3071.45,3051
3070.49,3392
3069.53,3775
3068.56,4191
3067.60,4638
3066.63,5116
3065.67,5624
3064.70,6119
3063.74,6601
3062.78,7046
3061.81,7449
3060.85,7784
3059.88,8054
3058.92,8255
3057.95,8393
3056.99,8481
3056.03,8523
3055.06,8577
3054.10,8642
3053.13,8723
3052.17,8767
3051.20,8715
3050.24,8528
3049.28,8182
3048.31,7698
3047.35,7082
3046.38,6414
3045.42,5775
3044.46,5187
3043.49,4723
3042.53,4383
3041.56,4185
3040.60,4075
3039.63,4036
3038.67,4020
3037.71,4017
3036.74,3990
3035.78,3924
3034.81,3821
3033.85,3683
3032.88,3520
3031.92,3337
3030.96,3147
3029.99,2934
3029.03,2717
3028.06,2505
3027.10,2315
3026.13,2136
3025.17,1951
3024.21,1756
3023.24,1558
3022.28,1365
3021.31,1197
3020.35,1044
3019.39,900
3018.42,785
3017.46,705
3016.49,642
3015.53,589
3014.56,543
3013.60,506
3012.64,481
3011.67,469
3010.71,465
3009.74,463
3008.78,477
3007.81,523
3006.85,583
3005.89,648
3004.92,719
3003.96,795
3002.99,862
3002.03,916
3001.06,956
3000.10,973
2999.14,962
2998.17,912
2997.21,827
2996.24,712
2995.28,610
2994.32,524
2993.35,460
2992.39,412
2991.42,374
2990.46,352
2989.49,343
2988.53,339
2987.57,343
2986.60,351
2985.64,367
2984.67,399
2983.71,443
2982.74,503
2981.78,582
2980.82,673
2979.85,767
2978.89,856
2977.92,927
2976.96,977
2975.99,999
2975.03,994
2974.07,955
2973.10,888
2972.14,814
2971.17,737
2970.21,681
2969.25,640
2968.28,611
2967.32,591
2966.35,575
2965.39,560
2964.42,553
2963.46,554
2962.50,559
2961.53,570
2960.57,580
2959.60,589
2958.64,599
2957.67,610
2956.71,623
2955.75,637
2954.78,650
2953.82,663
2952.85,686
2951.89,717
2950.92,751
2949.96,788
2949.00,828
2948.03,865
2947.07,902
2946.10,946
2945.14,995
2944.17,1049
2943.21,1111
2942.25,1181
2941.28,1254
2940.32,1328
2939.35,1401
2938.39,1463
2937.43,1511
2936.46,1566
2935.50,1623
2934.53,1669
2933.57,1711
2932.60,1757
2931.64,1805
2930.68,1852
2929.71,1901
2928.75,1960
2927.78,2027
2926.82,2084
2925.85,2124
2924.89,2176
2923.93,2237
2922.96,2284
2922.00,2330
2921.03,2389
2920.07,2455
2919.10,2517
2918.14,2580
2917.18,2654
2916.21,2728
2915.25,2787
2914.28,2839
2913.32,2890
2912.36,2945
2911.39,2996
2910.43,3041
2909.46,3085
2908.50,3127
2907.53,3160
2906.57,3180
2905.61,3186
2904.64,3183
2903.68,3180
2902.71,3187
2901.75,3202
2900.78,3204
2899.82,3186
2898.86,3155
2897.89,3110
2896.93,3052
2895.96,2973
2895.00,2877
2894.03,2785
2893.07,2696
2892.11,2602
2891.14,2509
2890.18,2414
2889.21,2313
2888.25,2219
2887.29,2124
2886.32,2026
2885.36,1940
2884.39,1866
2883.43,1782
2882.46,1681
2881.50,1590
2880.54,1524
2879.57,1472
2878.61,1425
2877.64,1366
2876.68,1300
2875.71,1246
2874.75,1206
2873.79,1176
2872.82,1147
2871.86,1121
2870.89,1103
2869.93,1088
2868.96,1075
2868.00,1076
2867.04,1094
2866.07,1114
2865.11,1125
2864.14,1142
2863.18,1173
2862.22,1207
2861.25,1240
2860.29,1274
2859.32,1318
2858.36,1373
2857.39,1439
2856.43,1496
2855.47,1539
2854.50,1576
2853.54,1603
2852.57,1623
2851.61,1637
2850.64,1637
2849.68,1622
2848.72,1593
2847.75,1540
2846.79,1472
2845.82,1396
2844.86,1311
2843.89,1212
2842.93,1107
2841.97,1000
2841.00,889
2840.04,772
2839.07,659
2838.11,550
2837.15,455
2836.18,382
2835.22,322
2834.25,269
2833.29,222
2832.32,183
2831.36,156
2830.40,141
2829.43,124
2828.47,105
2827.50,89
2826.54,79
2825.57,71
2824.61,61
2823.65,49
2822.68,37
2821.72,34
2820.75,40
2819.79,46
2818.82,52
2817.86,46
2816.90,29
2815.93,18
2814.97,18
2814.00,21
2813.04,16
2812.08,6
2811.11,3
2810.15,4
2809.18,0
2808.22,-4
2807.25,-9
2806.29,-17
2805.33,-20
2804.36,-21
2803.40,-22
2802.43,-20
2801.47,-17
2800.50,-17
2799.54,-23
2798.58,-28
2797.61,-29
2796.65,-30
2795.68,-29
2794.72,-29
2793.75,-37
2792.79,-40
2791.83,-35
2790.86,-32
2789.90,-33
2788.93,-32
2787.97,-30
2787.00,-21
2786.04,-6
2785.08,3
2784.11,-4
2783.15,-11
2782.18,0
2781.22,7
2780.26,0
2779.29,-0
2778.33,9
2777.36,15
2776.40,8
2775.43,-4
2774.47,-8
2773.51,-5
2772.54,-4
2771.58,-7
2770.61,-5
2769.65,-12
2768.68,-28
2767.72,-38
2766.76,-39
2765.79,-40
2764.83,-42
2763.86,-41
2762.90,-36
2761.93,-32
2760.97,-34
2760.01,-35
2759.04,-30
2758.08,-24
2757.11,-23
2756.15,-27
2755.19,-35
2754.22,-38
2753.26,-29
2752.29,-15
2751.33,-4
2750.36,2
2749.40,1
2748.44,-7
2747.47,-8
2746.51,-9
2745.54,-17
2744.58,-21
2743.61,-9
2742.65,5
2741.69,4
2740.72,-4
2739.76,-5
2738.79,-2
2737.83,-2
2736.86,-4
2735.90,-6
2734.94,-7
2733.97,3
2733.01,16
2732.04,15
2731.08,7
2730.12,4
2729.15,7
2728.19,13
2727.22,19
2726.26,24
2725.29,24
2724.33,18
2723.37,9
2722.40,2
2721.44,-4
2720.47,-11
2719.51,-15
2718.54,-5
2717.58,14
2716.62,26
2715.65,27
2714.69,22
2713.72,16
2712.76,8
2711.79,0
2710.83,-4
2709.87,-3
2708.90,-5
2707.94,-17
2706.97,-25
2706.01,-26
2705.05,-31
2704.08,-33
2703.12,-25
2702.15,-16
2701.19,-11
2700.22,-13
2699.26,-19
2698.30,-24
2697.33,-26
2696.37,-25
2695.40,-23
2694.44,-20
2693.47,-22
2692.51,-28
2691.55,-26
2690.58,-11
2689.62,2
2688.65,-3
2687.69,-11
2686.72,-8
2685.76,1
2684.80,4
2683.83,5
2682.87,6
2681.90,2
2680.94,-9
2679.98,-14
2679.01,-9
2678.05,-1
2677.08,1
2676.12,0
2675.15,-0
2674.19,-2
2673.23,-2
2672.26,-1
2671.30,-6
2670.33,-12
2669.37,-18
2668.40,-24
2667.44,-24
2666.48,-17
2665.51,-4
2664.55,8
2663.58,10
2662.62,3
2661.65,-0
2660.69,1
2659.73,-1
2658.76,-5
2657.80,3
2656.83,16
2655.87,21
2654.91,18
2653.94,13
2652.98,10
2652.01,9
2651.05,9
2650.08,14
2649.12,23
2648.16,21
2647.19,10
2646.23,3
2645.26,6
2644.30,8
2643.33,7
2642.37,10
2641.41,16
2640.44,20
2639.48,19
2638.51,10
2637.55,-4
2636.58,-14
2635.62,-14
2634.66,-13
2633.69,-17
2632.73,-20
2631.76,-17
2630.80,-10
2629.83,-2
2628.87,9
2627.91,18
2626.94,19
2625.98,15
2625.01,10
2624.05,5
2623.09,6
2622.12,9
2621.16,9
2620.19,10
2619.23,11
2618.26,8
2617.30,3
2616.34,4
2615.37,9
2614.41,11
2613.44,8
2612.48,9
2611.51,14
2610.55,16
2609.59,14
2608.62,18
2607.66,24
2606.69,24
2605.73,21
2604.76,18
2603.80,16
2602.84,15
2601.87,14
2600.91,12
2599.94,10
2598.98,7
2598.02,2
2597.05,-1
2596.09,0
2595.12,4
2594.16,3
2593.19,-1
2592.23,-6
2591.27,-8
2590.30,-2
2589.34,3
2588.37,-1
2587.41,-10
2586.44,-13
2585.48,-13
2584.52,-15
2583.55,-19
2582.59,-25
2581.62,-23
2580.66,-14
2579.69,-3
2578.73,-0
2577.77,-8
2576.80,-16
2575.84,-16
2574.87,-13
2573.91,-11
2572.95,-7
2571.98,-5
2571.02,-13
2570.05,-21
2569.09,-21
2568.12,-13
2567.16,-4
2566.20,-0
2565.23,-1
2564.27,1
2563.30,4
2562.34,2
2561.37,3
2560.41,13
2559.45,16
2558.48,3
2557.52,-11
2556.55,-9
2555.59,-0
2554.62,2
2553.66,-2
2552.70,-11
2551.73,-18
2550.77,-18
2549.80,-14
2548.84,-10
2547.88,-6
2546.91,-4
2545.95,-7
2544.98,-9
2544.02,-8
2543.05,-2
2542.09,4
2541.13,8
2540.16,12
2539.20,10
2538.23,4
2537.27,3
2536.30,6
2535.34,6
2534.38,3
2533.41,2
2532.45,0
2531.48,0
2530.52,3
2529.55,5
2528.59,8
2527.63,11
2526.66,12
2525.70,11
2524.73,10
2523.77,6
2522.81,2
2521.84,2
2520.88,2
2519.91,4
2518.95,8
2517.98,4
2517.02,-1
2516.06,-3
2515.09,-2
2514.13,0
2513.16,5
2512.20,7
2511.23,4
2510.27,4
2509.31,5
2508.34,4
2507.38,6
2506.41,8
2505.45,2
2504.48,-9
2503.52,-18
2502.56,-19
2501.59,-17
2500.63,-16
2499.66,-14
2498.70,-11
2497.74,-4
2496.77,2
2495.81,3
2494.84,1
2493.88,-5
2492.91,-8
2491.95,-6
2490.99,-4
2490.02,-0
2489.06,3
2488.09,1
2487.13,-2
2486.16,0
2485.20,-1
2484.24,-7
2483.27,-5
2482.31,10
2481.34,18
2480.38,10
2479.41,-0
2478.45,-2
2477.49,-1
2476.52,-2
2475.56,-5
2474.59,-8
2473.63,-9
2472.66,-12
2471.70,-18
2470.74,-18
2469.77,-12
2468.81,-11
2467.84,-12
2466.88,-7
2465.92,-3
2464.95,-2
2463.99,-2
2463.02,-4
2462.06,-8
2461.09,-13
2460.13,-12
2459.17,-12
2458.20,-13
2457.24,-11
2456.27,-5
2455.31,4
2454.34,12
2453.38,20
2452.42,26
2451.45,25
2450.49,20
2449.52,14
2448.56,12
2447.59,12
2446.63,16
2445.67,22
2444.70,28
2443.74,38
2442.77,57
2441.81,75
2440.85,79
2439.88,72
2438.92,66
2437.95,65
2436.99,64
2436.02,56
2435.06,47
2434.10,43
2433.13,42
2432.17,45
2431.20,49
2430.24,47
2429.27,41
2428.31,37
2427.35,30
2426.38,18
2425.42,6
2424.45,1
2423.49,6
2422.52,13
2421.56,19
2420.60,25
2419.63,26
2418.67,24
2417.70,20
2416.74,16
2415.78,8
2414.81,-3
2413.85,-14
2412.88,-19
2411.92,-14
2410.95,-1
2409.99,7
2409.03,7
2408.06,6
2407.10,6
2406.13,-6
2405.17,-18
2404.20,-11
2403.24,5
2402.28,15
2401.31,18
2400.35,15
2399.38,10
2398.42,10
2397.45,16
2396.49,18
2395.53,14
2394.56,8
2393.60,3
2392.63,1
2391.67,-0
2390.71,0
2389.74,1
2388.78,4
2387.81,14
2386.85,21
2385.88,20
2384.92,14
2383.96,8
2382.99,2
2382.03,-2
2381.06,-1
2380.10,7
2379.13,15
2378.17,22
2377.21,27
2376.24,27
2375.28,25
2374.31,18
2373.35,7
2372.38,0
2371.42,2
2370.46,7
2369.49,7
2368.53,3
2367.56,3
2366.60,9
2365.64,15
2364.67,17
2363.71,8
2362.74,-7
2361.78,-11
2360.81,-3
2359.85,4
2358.89,5
2357.92,-1
2356.96,-10
2355.99,-14
2355.03,-9
2354.06,-1
2353.10,1
2352.14,-5
2351.17,-15
2350.21,-22
2349.24,-14
2348.28,2
2347.31,6
2346.35,-1
2345.39,-10
2344.42,-14
2343.46,-15
2342.49,-15
2341.53,-14
2340.57,-13
2339.60,-11
2338.64,-9
2337.67,-7
2336.71,-2
2335.74,-4
2334.78,-11
2333.82,-19
2332.85,-22
2331.89,-19
2330.92,-14
2329.96,-7
2328.99,1
2328.03,6
2327.07,7
2326.10,5
2325.14,3
2324.17,-2
2323.21,-3
2322.24,0
2321.28,-1
2320.32,-6
2319.35,-9
2318.39,-5
2317.42,1
2316.46,7
2315.49,12
2314.53,13
2313.57,12
2312.60,15
2311.64,18
2310.67,19
2309.71,19
2308.75,21
2307.78,24
2306.82,24
2305.85,17
2304.89,9
2303.92,6
2302.96,6
2302.00,4
2301.03,-3
2300.07,-7
2299.10,-5
2298.14,1
2297.17,7
2296.21,6
2295.25,-1
2294.28,-5
2293.32,-1
2292.35,4
2291.39,-0
2290.42,-6
2289.46,-6
2288.50,-6
2287.53,-8
2286.57,-4
2285.60,-0
2284.64,0
2283.68,2
2282.71,3
2281.75,6
2280.78,11
2279.82,16
2278.85,17
2277.89,14
2276.93,8
2275.96,7
2275.00,9
2274.03,10
2273.07,8
2272.10,6
2271.14,9
2270.18,15
2269.21,21
2268.25,24
2267.28,13
2266.32,-1
2265.35,-4
2264.39,6
2263.43,12
2262.46,9
2261.50,7
2260.53,9
2259.57,14
2258.61,15
2257.64,6
2256.68,-5
2255.71,-11
2254.75,-12
2253.78,-4
2252.82,10
2251.86,23
2250.89,25
2249.93,19
2248.96,16
2248.00,18
2247.03,12
2246.07,-0
2245.11,-8
2244.14,-15
2243.18,-16
2242.21,-7
2241.25,2
2240.28,2
2239.32,1
2238.36,1
2237.39,0
2236.43,0
2235.46,-1
2234.50,-4
2233.54,-2
2232.57,1
2231.61,-2
2230.64,-1
2229.68,7
2228.71,6
2227.75,-3
2226.79,-8
2225.82,-6
2224.86,-3
2223.89,-0
2222.93,1
2221.96,4
2221.00,7
2220.04,7
2219.07,-1
2218.11,-10
2217.14,-8
2216.18,-1
2215.21,6
2214.25,14
2213.29,16
2212.32,9
2211.36,-0
2210.39,-3
2209.43,2
2208.47,10
2207.50,13
2206.54,11
2205.57,12
2204.61,18
2203.64,26
2202.68,29
2201.72,31
2200.75,36
2199.79,41
2198.82,41
2197.86,38
2196.89,30
2195.93,19
2194.97,9
2194.00,3
2193.04,3
2192.07,8
2191.11,16
2190.14,23
2189.18,28
2188.22,29
2187.25,29
2186.29,29
2185.32,29
2184.36,25
2183.40,19
2182.43,16
2181.47,15
2180.50,10
2179.54,4
2178.57,1
2177.61,0
2176.65,3
2175.68,8
2174.72,9
2173.75,4
2172.79,-0
2171.82,2
2170.86,6
2169.90,3
2168.93,-3
2167.97,-2
2167.00,5
2166.04,9
2165.07,8
2164.11,8
2163.15,7
2162.18,7
2161.22,10
2160.25,12
2159.29,11
2158.32,10
2157.36,6
2156.40,0
2155.43,-4
2154.47,-3
2153.50,-2
2152.54,-2
2151.58,0
2150.61,5
2149.65,6
2148.68,1
2147.72,-0
2146.75,6
2145.79,11
2144.83,7
2143.86,-4
2142.90,-12
2141.93,-17
2140.97,-17
2140.00,-12
2139.04,-7
2138.08,-9
2137.11,-10
2136.15,-7
2135.18,-9
2134.22,-16
2133.25,-19
2132.29,-12
2131.33,-3
2130.36,-0
2129.40,-3
2128.43,-4
2127.47,-1
2126.51,1
2125.54,-6
2124.58,-13
2123.61,-12
2122.65,-11
2121.68,-14
2120.72,-16
2119.76,-14
2118.79,-9
2117.83,-5
2116.86,-6
2115.90,-8
2114.93,-9
2113.97,-9
2113.01,-7
2112.04,-4
2111.08,-8
2110.11,-15
2109.15,-13
2108.18,-11
2107.22,-16
2106.26,-22
2105.29,-16
2104.33,-2
2103.36,2
2102.40,-5
2101.44,-8
2100.47,-3
2099.51,-0
2098.54,-4
2097.58,-11
2096.61,-16
2095.65,-19
2094.69,-20
2093.72,-19
2092.76,-18
2091.79,-17
2090.83,-12
2089.86,-5
2088.90,-3
2087.94,-5
2086.97,-8
2086.01,-12
2085.04,-13
2084.08,-8
2083.11,-2
2082.15,2
2081.19,4
2080.22,2
2079.26,-2
2078.29,-1
2077.33,4
2076.37,9
2075.40,11
2074.44,11
2073.47,8
2072.51,6
2071.54,5
2070.58,5
2069.62,0
2068.65,-6
2067.69,-8
2066.72,-7
2065.76,-3
2064.79,7
2063.83,17
2062.87,22
2061.90,23
2060.94,20
2059.97,15
2059.01,9
2058.04,3
2057.08,0
2056.12,-0
2055.15,-3
2054.19,-5
2053.22,-3
2052.26,1
2051.30,3
2050.33,0
2049.37,-3
2048.40,-0
2047.44,6
2046.47,9
2045.51,7
2044.55,3
2043.58,-0
2042.62,-2
2041.65,3
2040.69,10
2039.72,16
2038.76,19
2037.80,11
2036.83,-3
2035.87,-4
2034.90,7
2033.94,10
2032.97,3
2032.01,-0
2031.05,4
2030.08,8
2029.12,5
2028.15,1
2027.19,1
2026.23,7
2025.26,11
2024.30,11
2023.33,10
2022.37,10
2021.40,9
2020.44,10
2019.48,9
2018.51,5
2017.55,3
2016.58,3
2015.62,2
2014.65,-1
2013.69,-5
2012.73,-3
2011.76,5
2010.80,15
2009.83,22
2008.87,24
2007.90,25
2006.94,24
2005.98,21
2005.01,15
2004.05,6
2003.08,-4
2002.12,-6
2001.15,0
2000.19,4
1999.23,1
1998.26,-5
1997.30,-1
1996.33,8
1995.37,3
1994.41,-8
1993.44,-10
1992.48,-8
1991.51,-7
1990.55,-6
1989.58,-6
1988.62,-4
1987.66,-3
1986.69,-6
1985.73,-11
1984.76,-9
1983.80,-2
1982.83,2
1981.87,1
1980.91,1
1979.94,-4
1978.98,-13
1978.01,-22
1977.05,-23
1976.08,-18
1975.12,-14
1974.16,-15
1973.19,-21
1972.23,-24
1971.26,-20
1970.30,-12
1969.34,-6
1968.37,-3
1967.41,-2
1966.44,-1
1965.48,-1
1964.51,0
1963.55,1
1962.59,2
1961.62,1
1960.66,-2
1959.69,-9
1958.73,-17
1957.76,-19
1956.80,-14
1955.84,-7
1954.87,-4
1953.91,-6
1952.94,-5
1951.98,-2
1951.01,-5
1950.05,-12
1949.09,-14
1948.12,-11
1947.16,-9
1946.19,-11
1945.23,-16
1944.27,-18
1943.30,-17
1942.34,-14
1941.37,-9
1940.41,-5
1939.44,-4
1938.48,-7
1937.52,-15
1936.55,-21
1935.59,-19
1934.62,-13
1933.66,-6
1932.69,-1
1931.73,3
1930.77,4
1929.80,2
1928.84,0
1927.87,-2
1926.91,-9
1925.94,-16
1924.98,-13
1924.02,-4
1923.05,-1
1922.09,2
1921.12,4
1920.16,8
1919.20,9
1918.23,6
1917.27,6
1916.30,9
1915.34,9
1914.37,-2
1913.41,-17
1912.45,-22
1911.48,-16
1910.52,-10
1909.55,-13
1908.59,-17
1907.62,-17
1906.66,-18
1905.70,-18
1904.73,-15
1903.77,-14
1902.80,-14
1901.84,-15
1900.87,-17
1899.91,-22
1898.95,-24
1897.98,-21
1897.02,-14
1896.05,-5
1895.09,2
1894.13,4
1893.16,-1
1892.20,-10
1891.23,-12
1890.27,-7
1889.30,-1
1888.34,1
1887.38,3
1886.41,8
1885.45,13
1884.48,16
1883.52,14
1882.55,8
1881.59,3
1880.63,4
1879.66,5
1878.70,6
1877.73,10
1876.77,12
1875.80,8
1874.84,6
1873.88,9
1872.91,16
1871.95,20
1870.98,20
1870.02,15
1869.06,10
1868.09,11
1867.13,16
1866.16,20
1865.20,21
1864.23,19
1863.27,16
1862.31,14
1861.34,12
1860.38,6
1859.41,-1
1858.45,-0
1857.48,6
1856.52,12
1855.56,13
1854.59,14
1853.63,17
1852.66,21
1851.70,22
1850.73,17
1849.77,8
1848.81,2
1847.84,-0
1846.88,0
1845.91,2
1844.95,6
1843.98,10
1843.02,13
1842.06,15
1841.09,19
1840.13,17
1839.16,6
1838.20,-7
1837.24,-9
1836.27,-2
1835.31,7
1834.34,11
1833.38,9
1832.41,5
1831.45,2
1830.49,3
1829.52,8
1828.56,12
1827.59,10
1826.63,5
1825.66,3
1824.70,3
1823.74,9
1822.77,16
1821.81,19
1820.84,18
1819.88,16
1818.91,16
1817.95,18
1816.99,16
1816.02,11
1815.06,9
1814.09,10
1813.13,14
1812.17,20
1811.20,25
1810.24,27
1809.27,27
1808.31,30
1807.34,35
1806.38,35
1805.42,30
1804.45,26
1803.49,23
1802.52,20
1801.56,17
1800.59,15
1799.63,16
1798.67,18
1797.70,21
1796.74,23
1795.77,24
1794.81,20
1793.84,17
1792.88,18
1791.92,18
1790.95,17
1789.99,15
1789.02,11
1788.06,6
1787.10,1
1786.13,-0
1785.17,4
1784.20,16
1783.24,27
1782.27,28
1781.31,20
1780.35,21
1779.38,28
1778.42,26
1777.45,22
1776.49,21
1775.52,21
1774.56,19
1773.60,18
1772.63,16
1771.67,15
1770.70,17
1769.74,21
1768.77,25
1767.81,25
1766.85,22
1765.88,17
1764.92,16
1763.95,18
1762.99,16
1762.03,13
1761.06,14
1760.10,16
1759.13,16
1758.17,10
1757.20,0
1756.24,-8
1755.28,-9
1754.31,-3
1753.35,7
1752.38,13
1751.42,11
1750.45,6
1749.49,6
1748.53,11
1747.56,12
1746.60,11
1745.63,8
1744.67,4
1743.70,4
1742.74,9
1741.78,13
1740.81,9
1739.85,3
1738.88,5
1737.92,9
1736.96,7
1735.99,1
1735.03,-0
1734.06,2
1733.10,4
1732.13,-1
1731.17,-7
1730.21,-5
1729.24,6
1728.28,11
1727.31,7
1726.35,-3
1725.38,-15
1724.42,-27
1723.46,-32
1722.49,-30
1721.53,-25
1720.56,-19
1719.60,-12
1718.63,-11
1717.67,-14
1716.71,-17
1715.74,-18
1714.78,-17
1713.81,-14
1712.85,-14
1711.89,-17
1710.92,-19
1709.96,-18
1708.99,-18
1708.03,-25
1707.06,-34
1706.10,-33
1705.14,-27
1704.17,-24
1703.21,-26
1702.24,-26
1701.28,-23
1700.31,-19
1699.35,-17
1698.39,-18
1697.42,-20
1696.46,-21
1695.49,-23
1694.53,-22
1693.56,-16
1692.60,-10
1691.64,-4
1690.67,-2
1689.71,-3
1688.74,0
1687.78,8
1686.81,9
1685.85,1
1684.89,-6
1683.92,-5
1682.96,-2
1681.99,-2
1681.03,-2
1680.07,0
1679.10,5
1678.14,10
1677.17,17
1676.21,23
1675.24,22
1674.28,22
1673.32,22
1672.35,17
1671.39,13
1670.42,10
1669.46,4
1668.49,-1
1667.53,0
1666.57,4
1665.60,6
1664.64,6
1663.67,4
1662.71,-1
1661.74,-1
1660.78,6
1659.82,3
1658.85,-9
1657.89,-5
1656.92,4
1655.96,5
1655.00,2
1654.03,0
1653.07,3
1652.10,8
1651.14,13
1650.17,17
1649.21,21
1648.25,22
1647.28,23
1646.32,25
1645.35,28
1644.39,28
1643.42,26
1642.46,29
1641.50,35
1640.53,36
1639.57,34
1638.60,35
1637.64,42
1636.67,52
1635.71,64
1634.75,77
1633.78,86
1632.82,90
1631.85,95
1630.89,109
1629.93,122
1628.96,126
1628.00,126
1627.03,128
1626.07,134
1625.10,147
1624.14,167
1623.18,188
1622.21,203
1621.25,213
1620.28,222
1619.32,232
1618.35,245
1617.39,264
1616.43,294
1615.46,340
1614.50,398
1613.53,479
1612.57,573
1611.60,702
1610.64,868
1609.68,1096
1608.71,1397
1607.75,1775
1606.78,2232
1605.82,2751
1604.86,3289
1603.89,3808
1602.93,4243
1601.96,4480
1601.00,4548
1600.03,4345
1599.07,3931
1598.11,3447
1597.14,2852
1596.18,2341
1595.21,1907
1594.25,1548
1593.28,1278
1592.32,1080
1591.36,937
1590.39,848
1589.43,812
1588.46,824
1587.50,892
1586.53,1033
1585.57,1231
1584.61,1428
1583.64,1635
1582.68,1725
1581.71,1720
1580.75,1615
1579.79,1408
1578.82,1162
1577.86,929
1576.89,716
1575.93,550
1574.96,442
1574.00,365
1573.04,306
1572.07,272
1571.11,236
1570.14,208
1569.18,183
1568.21,157
1567.25,135
1566.29,120
1565.32,108
1564.36,95
1563.39,85
1562.43,78
1561.46,70
1560.50,61
1559.54,54
1558.57,51
1557.61,52
1556.64,55
1555.68,55
1554.72,53
1553.75,50
1552.79,46
1551.82,41
1550.86,33
1549.89,27
1548.93,26
1547.97,26
1547.00,24
1546.04,20
1545.07,13
1544.11,6
1543.14,5
1542.18,8
1541.22,10
1540.25,5
1539.29,-6
1538.32,-13
1537.36,-10
1536.39,-2
1535.43,0
1534.47,-1
1533.50,2
1532.54,9
1531.57,15
1530.61,18
1529.64,17
1528.68,13
1527.72,9
1526.75,7
1525.79,7
1524.82,9
1523.86,10
1522.90,6
1521.93,1
1520.97,-3
1520.00,-13
1519.04,-23
1518.07,-17
1517.11,-1
1516.15,12
1515.18,15
1514.22,11
1513.25,1
1512.29,-9
1511.32,-15
1510.36,-15
1509.40,-17
1508.43,-17
1507.47,-11
1506.50,-7
1505.54,-8
1504.57,-9
1503.61,-10
1502.65,-10
1501.68,-6
1500.72,2
1499.75,9
1498.79,14
1497.83,22
1496.86,42
1495.90,71
1494.93,96
1493.97,106
1493.00,99
1492.04,86
1491.08,72
1490.11,61
1489.15,51
1488.18,40
1487.22,26
1486.25,18
1485.29,19
1484.33,22
1483.36,21
1482.40,20
1481.43,21
1480.47,25
1479.50,27
1478.54,30
1477.58,34
1476.61,41
1475.65,45
1474.68,40
1473.72,31
1472.76,28
1471.79,28
1470.83,32
1469.86,44
1468.90,60
1467.93,72
1466.97,82
1466.01,97
1465.04,116
1464.08,130
1463.11,139
1462.15,152
1461.18,180
1460.22,212
1459.26,261
1458.29,329
1457.33,423
1456.36,538
1455.40,652
1454.43,756
1453.47,846
1452.51,921
1451.54,982
1450.58,1026
1449.61,1042
1448.65,1037
1447.69,1019
1446.72,980
1445.76,928
1444.79,873
1443.83,818
1442.86,763
1441.90,711
1440.94,665
1439.97,615
1439.01,553
1438.04,491
1437.08,438
1436.11,394
1435.15,352
1434.19,306
1433.22,257
1432.26,210
1431.29,166
1430.33,121
1429.36,79
1428.40,47
1427.44,29
1426.47,22
1425.51,19
1424.54,13
1423.58,3
1422.62,-5
1421.65,-7
1420.69,-4
1419.72,-1
1418.76,1
1417.79,-0
1416.83,-4
1415.87,-9
1414.90,-12
1413.94,-13
1412.97,-10
1412.01,-2
1411.04,8
1410.08,11
1409.12,6
1408.15,-3
1407.19,-7
1406.22,-3
1405.26,3
1404.29,3
1403.33,-0
1402.37,0
1401.40,1
1400.44,0
1399.47,2
1398.51,8
1397.55,13
1396.58,11
1395.62,2
1394.65,-5
1393.69,-2
1392.72,9
1391.76,13
1390.80,4
1389.83,-4
1388.87,-1
1387.90,11
1386.94,18
1385.97,13
1385.01,3
1384.05,2
1383.08,18
1382.12,33
1381.15,46
1380.19,52
1379.22,49
1378.26,46
1377.30,48
1376.33,51
1375.37,49
1374.40,42
1373.44,37
1372.47,39
1371.51,39
1370.55,30
1369.58,15
1368.62,1
1367.65,-1
1366.69,-4
1365.73,-13
1364.76,-23
1363.80,-25
1362.83,-22
1361.87,-20
1360.90,-13
1359.94,-8
1358.98,-10
1358.01,-19
1357.05,-29
1356.08,-34
1355.12,-34
1354.15,-31
1353.19,-25
1352.23,-13
1351.26,-4
1350.30,-1
1349.33,0
1348.37,2
1347.40,4
1346.44,11
1345.48,24
1344.51,38
1343.55,46
1342.58,52
1341.62,67
1340.66,94
1339.69,125
1338.73,150
1337.76,172
1336.80,197
1335.83,226
1334.87,257
1333.91,284
1332.94,309
1331.98,329
1331.01,347
1330.05,362
1329.08,373
1328.12,381
1327.16,386
1326.19,385
1325.23,374
1324.26,356
1323.30,337
1322.33,317
1321.37,297
1320.41,276
1319.44,252
1318.48,223
1317.51,193
1316.55,162
1315.59,133
1314.62,124
1313.66,165
1312.69,233
1311.73,211
1310.76,103
1309.80,17
1308.84,-7
1307.87,-1
1306.91,1
1305.94,-4
1304.98,-1
1304.01,10
1303.05,21
1302.09,16
1301.12,5
1300.16,-1
1299.19,1
1298.23,6
1297.26,9
1296.30,9
1295.34,8
1294.37,7
1293.41,3
1292.44,-9
1291.48,-22
1290.52,-29
1289.55,-29
1288.59,-26
1287.62,-21
1286.66,-13
1285.69,-5
1284.73,-6
1283.77,-17
1282.80,-30
1281.84,-38
1280.87,-35
1279.91,-26
1278.94,-17
1277.98,-12
1277.02,-9
1276.05,-8
1275.09,-10
1274.12,-16
1273.16,-18
1272.19,-13
1271.23,-7
1270.27,-8
1269.30,-18
1268.34,-26
1267.37,-24
1266.41,-18
1265.45,-18
1264.48,-18
1263.52,-10
1262.55,-3
1261.59,-2
1260.62,-5
1259.66,-7
1258.70,-4
1257.73,5
1256.77,18
1255.80,32
1254.84,40
1253.87,40
1252.91,36
1251.95,30
1250.98,26
1250.02,28
1249.05,40
1248.09,56
1247.12,71
1246.16,82
1245.20,88
1244.23,90
1243.27,92
1242.30,100
1241.34,109
1240.38,116
1239.41,122
1238.45,127
1237.48,130
1236.52,135
1235.55,149
1234.59,162
1233.63,175
1232.66,190
1231.70,207
1230.73,229
1229.77,255
1228.80,281
1227.84,308
1226.88,336
1225.91,365
1224.95,394
1223.98,426
1223.02,460
1222.05,486
1221.09,503
1220.13,520
1219.16,547
1218.20,572
1217.23,602
1216.27,641
1215.30,692
1214.34,755
1213.38,828
1212.41,908
1211.45,995
1210.48,1095
1209.52,1221
1208.56,1366
1207.59,1519
1206.63,1673
1205.66,1823
1204.70,1971
1203.73,2111
1202.77,2230
1201.81,2330
1200.84,2400
1199.88,2441
1198.91,2452
1197.95,2442
1196.98,2425
1196.02,2406
1195.06,2380
1194.09,2338
1193.13,2280
1192.16,2212
1191.20,2145
1190.23,2083
1189.27,2035
1188.31,2000
1187.34,1987
1186.38,2007
1185.41,2054
1184.45,2129
1183.49,2233
1182.52,2307
1181.56,2360
1180.59,2355
1179.63,2274
1178.66,2127
1177.70,1932
1176.74,1699
1175.77,1451
1174.81,1251
1173.84,1075
1172.88,945
1171.91,854
1170.95,790
1169.99,748
1169.02,722
1168.06,700
1167.09,691
1166.13,698
1165.16,718
1164.20,749
1163.24,790
1162.27,848
1161.31,932
1160.34,1047
1159.38,1188
1158.42,1354
1157.45,1530
1156.49,1673
1155.52,1793
1154.56,1847
1153.59,1824
1152.63,1731
1151.67,1560
1150.70,1325
1149.74,1114
1148.77,913
1147.81,747
1146.84,618
1145.88,519
1144.92,443
1143.95,386
1142.99,340
1142.02,298
1141.06,263
1140.09,220
1139.13,172
1138.17,134
1137.20,107
1136.24,86
1135.27,67
1134.31,53
1133.35,42
1132.38,31
1131.42,20
1130.45,14
1129.49,12
1128.52,11
1127.56,8
1126.60,0
1125.63,-6
1124.67,-11
1123.70,-22
1122.74,-36
1121.77,-40
1120.81,-35
1119.85,-31
1118.88,-35
1117.92,-39
1116.95,-40
1115.99,-39
1115.02,-40
1114.06,-40
1113.10,-41
1112.13,-41
1111.17,-44
1110.20,-50
1109.24,-60
1108.28,-63
1107.31,-47
1106.35,-23
1105.38,0
1104.42,18
1103.45,32
1102.49,44
1101.53,60
1100.56,74
1099.60,91
1098.63,107
1097.67,117
1096.70,118
1095.74,110
1094.78,94
1093.81,72
1092.85,47
1091.88,31
1090.92,27
1089.95,26
1088.99,22
1088.03,17
1087.06,14
1086.10,14
1085.13,16
1084.17,11
1083.21,0
1082.24,0
1081.28,11
1080.31,23
1079.35,27
1078.38,23
1077.42,22
1076.46,30
1075.49,44
1074.53,59
1073.56,73
1072.60,84
1071.63,92
1070.67,97
1069.71,97
1068.74,96
1067.78,92
1066.81,83
1065.85,74
1064.88,64
1063.92,48
1062.96,26
1061.99,0
1061.03,-23
1060.06,-37
1059.10,-42
1058.13,-46
1057.17,-47
1056.21,-43
1055.24,-36
1054.28,-31
1053.31,-31
1052.35,-24
1051.39,-11
1050.42,4
1049.46,23
1048.49,47
1047.53,78
1046.56,115
1045.60,160
1044.64,220
1043.67,292
1042.71,380
1041.74,490
1040.78,630
1039.81,808
1038.85,1042
1037.89,1323
1036.92,1675
1035.96,2084
1034.99,2503
1034.03,2924
1033.06,3311
1032.10,3602
1031.14,3813
1030.17,3848
1029.21,3694
1028.24,3410
1027.28,3015
1026.32,2541
1025.35,2046
1024.39,1590
1023.42,1164
1022.46,867
1021.49,645
1020.53,485
1019.57,386
1018.60,314
1017.64,252
1016.67,218
1015.71,218
1014.74,254
1013.78,316
1012.82,401
1011.85,531
1010.89,732
1009.92,1038
1008.96,1510
1007.99,2243
1007.03,3335
1006.07,5018
1005.10,7163
1004.14,9603
1003.17,12262
1002.21,14771
1001.25,16109
1000.28,16698
999.32,15722
998.35,13493
997.39,10855
996.42,8121
995.46,5559
994.50,3644
993.53,2646
992.57,2111
991.60,1744
990.64,1567
989.67,1433
988.71,1307
987.75,1199
986.78,1043
985.82,879
984.85,728
983.89,582
982.92,465
981.96,378
981.00,311
980.03,259
979.07,220
978.10,183
977.14,145
976.18,109
975.21,78
974.25,51
973.28,29
972.32,11
971.35,3
970.39,11
969.43,29
968.46,41
967.50,44
966.53,40
965.57,36
964.60,38
963.64,43
962.68,49
961.71,54
960.75,54
959.78,47
958.82,34
957.85,22
956.89,13
955.93,6
954.96,0
954.00,-4
953.03,-6
952.07,-5
951.11,-4
950.14,-0
949.18,8
948.21,16
947.25,20
946.28,23
945.32,23
944.36,21
943.39,16
942.43,8
941.46,1
940.50,1
939.53,9
938.57,22
937.61,31
936.64,31
935.68,24
934.71,14
933.75,5
932.78,7
931.82,15
930.86,25
929.89,29
928.93,29
927.96,23
927.00,14
926.04,6
925.07,1
924.11,1
923.14,9
922.18,25
921.21,42
920.25,45
919.29,41
918.32,37
917.36,35
916.39,35
915.43,39
914.46,48
913.50,71
912.54,98
911.57,124
910.61,150
909.64,175
908.68,196
907.71,212
906.75,224
905.79,232
904.82,234
903.86,233
902.89,231
901.93,226
900.96,208
900.00,172
899.04,135
898.07,94
897.11,56
896.14,27
895.18,7
894.22,-4
893.25,-7
892.29,-5
891.32,-0
890.36,9
889.39,21
888.43,33
887.47,43
886.50,47
885.54,51
884.57,53
883.61,52
882.64,51
881.68,48
880.72,39
879.75,20
878.79,0
877.82,-12
876.86,-17
875.89,-14
874.93,-7
873.97,1
873.00,4
872.04,7
871.07,15
870.11,27
869.15,37
868.18,40
867.22,38
866.25,33
865.29,28
864.32,29
863.36,41
862.40,57
861.43,66
860.47,55
859.50,26
858.54,15
857.57,26
856.61,41
855.65,42
854.68,29
853.72,17
852.75,18
851.79,22
850.82,38
849.86,66
848.90,97
847.93,126
846.97,154
846.00,180
845.04,203
844.08,221
843.11,239
842.15,259
841.18,282
840.22,303
839.25,312
838.29,304
837.33,276
836.36,220
835.40,147
834.43,88
833.47,86
832.50,103
831.54,81
830.58,49
829.61,30
828.65,25
827.68,20
826.72,5
825.75,-14
824.79,-21
823.83,-15
822.86,-2
821.90,14
820.93,30
819.97,45
819.01,58
818.04,77
817.08,106
816.11,143
815.15,182
814.18,214
813.22,242
812.26,277
811.29,313
810.33,343
809.36,370
808.40,399
807.43,438
806.47,488
805.51,548
804.54,614
803.58,688
802.61,770
801.65,864
800.68,969
799.72,1085
798.76,1196
797.79,1280
796.83,1335
795.86,1364
794.90,1361
793.94,1341
792.97,1310
792.01,1258
791.04,1194
790.08,1120
789.11,1037
788.15,956
787.19,881
786.22,816
785.26,760
784.29,708
783.33,656
782.36,605
781.40,560
780.44,523
779.47,485
778.51,454
777.54,436
776.58,428
775.61,420
774.65,414
773.69,416
772.72,421
771.76,435
770.79,463
769.83,504
768.87,544
767.90,569
766.94,589
765.97,607
765.01,624
764.04,639
763.08,650
762.12,653
761.15,652
760.19,652
759.22,656
758.26,661
757.29,660
756.33,646
755.37,624
754.40,602
753.44,582
752.47,560
751.51,536
750.54,507
749.58,478
748.62,456
747.65,439
746.69,424
745.72,408
744.76,394
743.79,383
742.83,373
741.87,350
740.90,327
739.94,312
738.97,307
738.01,301
737.05,282
736.08,253
735.12,225
734.15,201
733.19,178
732.22,150
731.26,113
730.30,79
729.33,63
728.37,59
727.40,57
726.44,50
725.47,39
724.51,31
723.55,26
722.58,14
721.62,-2
720.65,-14
719.69,-18
718.72,-17
717.76,-18
716.80,-19
715.83,-16
714.87,-8
713.90,1
712.94,4
711.98,-0
711.01,-3
710.05,0
709.08,8
708.12,21
707.15,36
706.19,48
705.23,61
704.26,76
703.30,85
702.33,86
701.37,86
700.40,85
699.44,83
698.48,75
697.51,62
696.55,50
695.58,40
694.62,35
693.65,31
692.69,25
691.73,17
690.76,9
689.80,-1
688.83,-14
687.87,-13
686.91,47
685.94,2
684.98,-182
684.01,-346
683.05,-266
682.08,-12
681.12,53
680.16,13
679.19,-25
678.23,-24
677.26,0
676.30,8
675.33,7
674.37,3
673.41,-0
672.44,-0
671.48,3
670.51,4
669.55,-1
668.58,-7
667.62,-13
666.66,-14
665.69,-8
664.73,2
663.76,9
662.80,10
661.84,7
660.87,3
659.91,1
658.94,0
657.98,-1
657.01,-3
656.05,-2
655.09,2
654.12,7
653.16,8
652.19,8
651.23,13
650.26,18
649.30,17
648.34,11
647.37,6
646.41,8
645.44,17
644.48,27
643.51,35
642.55,40
641.59,42
640.62,42
639.66,41
638.69,44
637.73,55
636.77,74
635.80,98
634.84,124
633.87,147
632.91,167
631.94,190
630.98,216
630.02,247
629.05,286
628.09,337
627.12,448
626.16,617
625.19,847
624.23,1142
623.27,1504
622.30,1848
621.34,2101
620.37,2257
619.41,2255
618.44,2061
617.48,1733
616.52,1348
615.55,901
614.59,586
613.62,409
612.66,299
611.70,197
610.73,143
609.77,101
608.80,73
607.84,57
606.87,48
605.91,46
604.95,44
603.98,37
603.02,27
602.05,20
601.09,17
600.12,16
599.16,6
598.20,-5
597.23,-10
596.27,-8
595.30,-5
594.34,-11
593.37,-17
592.41,-16
591.45,-10
590.48,-4
589.52,-3
588.55,-7
587.59,-14
586.62,-17
585.66,-19
584.70,-20
583.73,-19
582.77,-14
581.80,0
580.84,15
579.88,19
578.91,14
577.95,7
576.98,9
576.02,19
575.05,27
574.09,30
573.13,28
572.16,24
571.20,21
570.23,17
569.27,13
568.30,10
567.34,7
566.38,5
565.41,6
564.45,9
563.48,11
562.52,13
561.55,12
560.59,7
559.63,-3
558.66,-11
557.70,-17
556.73,-21
555.77,-22
554.81,-16
553.84,-10
552.88,-7
551.91,-5
550.95,-1
549.98,3
549.02,7
548.06,11
547.09,15
546.13,17
545.16,16
544.20,13
543.23,13
542.27,13
541.31,10
540.34,10
539.38,12
538.41,12
537.45,0
536.48,-15
535.52,-27
534.56,-36
533.59,-43
532.63,-49
531.66,-56
530.70,-63
529.74,-68
528.77,-71
527.81,-74
526.84,-78
525.88,-85
524.91,-90
523.95,-94
522.99,-98
522.02,-102
521.06,-103
520.09,-97
519.13,-89
518.16,-82
517.20,-79
516.24,-78
515.27,-81
514.31,-80
513.34,-75
512.38,-68
511.41,-61
510.45,-61
509.49,-63
508.52,-64
507.56,-60
506.59,-52
505.63,-40
504.67,-32
503.70,-30
502.74,-28
501.77,-24
500.81,-20
499.84,-19
498.88,-21
497.92,-22
496.95,-23
495.99,-21
495.02,-16
494.06,-9
493.09,-3
492.13,-3
491.17,-5
490.20,-5
489.24,-1
488.27,8
487.31,23
486.34,39
485.38,55
484.42,68
483.45,79
482.49,82
481.52,84
480.56,80
479.60,66
478.63,46
477.67,33
476.70,32
475.74,32
474.77,30
473.81,28
472.85,25
471.88,19
470.92,16
469.95,22
468.99,34
468.02,45
467.06,46
466.10,42
465.13,43
464.17,48
463.20,55
462.24,62
461.27,67
460.31,68
459.35,65
458.38,63
457.42,67
456.45,78
455.49,92
454.53,105
453.56,113
452.60,119
451.63,123
450.67,129
449.70,135
448.74,141
447.78,147
446.81,150
445.85,148
444.88,156
443.92,170
442.95,180
441.99,181
441.03,175
440.06,171
439.10,171
438.13,171
437.17,170
436.20,168
435.24,168
434.28,171
433.31,171
432.35,168
431.38,164
430.42,164
429.45,174
428.49,189
427.53,199
426.56,202
425.60,202
424.63,203
423.67,212
422.71,224
421.74,237
420.78,250
419.81,264
418.85,278
417.88,291
416.92,301
415.96,311
414.99,322
414.03,336
413.06,352
412.10,369
411.13,387
410.17,406
409.21,427
408.24,447
407.28,458
406.31,464
405.35,463
404.38,455
403.42,440
402.46,425
401.49,409
400.53,392
399.56,375
398.60,362
397.64,346
396.67,327
395.71,310
394.74,300
393.78,298
392.81,298
391.85,295
390.89,287
389.92,272
388.96,254
387.99,238
387.03,232
386.06,230
385.10,227
384.14,220
383.17,207
382.21,190
381.24,174
380.28,156
379.31,138
378.35,118
377.39,101
376.42,95
375.46,96
374.49,94
373.53,84
372.57,67
371.60,55
370.64,47
369.67,39
368.71,32
367.74,24
366.78,13
365.82,1
364.85,-7
363.89,-8
362.92,-1
361.96,3
360.99,-2
360.03,-11
359.07,-19
358.10,-23
357.14,-20
356.17,-12
355.21,-2
354.24,9
353.28,16
352.32,16
351.35,2
350.39,-13
349.42,-23
348.46,-24
347.50,-18
346.53,-8
345.57,0
344.60,5
343.64,8
342.67,9
341.71,9
340.75,10
339.78,12
338.82,14
337.85,14
336.89,14
335.92,16
334.96,17
334.00,17
333.03,14
332.07,9
331.10,8
330.14,9
329.17,13
328.21,18
327.25,25
326.28,32
325.32,36
324.35,36
323.39,33
322.43,27
321.46,24
320.50,24
319.53,23
318.57,18
317.60,9
316.64,-1
315.68,-9
314.71,-16
313.75,-19
312.78,-15
311.82,-8
310.85,-5
309.89,-3
308.93,-5
307.96,-11
307.00,-21
306.03,-32
305.07,-39
304.10,-39
303.14,-31
302.18,-18
301.21,-10
300.25,-7
299.28,-9
298.32,-13
297.36,-17
296.39,-14
295.43,-6
294.46,4
293.50,14
292.53,20
291.57,24
290.61,26
289.64,26
288.68,27
287.71,29
286.75,30
285.78,33
284.82,37
283.86,40
282.89,42
281.93,41
280.96,39
280.00,38
279.03,36
278.07,32
277.11,22
276.14,10
275.18,0
274.21,-7
273.25,-13
272.28,-14
271.32,-15
270.36,-20
269.39,-29
268.43,-41
267.46,-52
266.50,-60
265.54,-68
264.57,-80
263.61,-96
262.64,-110
261.68,-114
260.71,-112
259.75,-111
258.79,-114
257.82,-121
256.86,-127
255.89,-132
254.93,-136
253.96,-138
253.00,-138
252.04,-131
251.07,-123
250.11,-114
249.14,-103
248.18,-90
247.21,-70
246.25,-43
245.29,-11
244.32,25
243.36,66
242.39,116
241.43,175
240.47,242
239.50,316
238.54,396
237.57,480
236.61,563
235.64,647
234.68,734
233.72,817
232.75,896
231.79,975
230.82,1055
229.86,1135
228.89,1220
227.93,1316
226.97,1402
226.00,1466
225.04,1501
224.07,1516
223.11,1513
222.14,1493
221.18,1461
220.22,1418
219.25,1363
218.29,1321
217.32,1282
216.36,1244
215.40,1200
214.43,1148
213.47,1086
212.50,1026
211.54,972
210.57,929
209.61,894
208.65,853
207.68,799
206.72,734
205.75,662
204.79,594
203.82,541
202.86,496
201.90,455
200.93,415
199.97,376
199.00,339
198.04,303
197.07,272
196.11,244
195.15,214
194.18,182
193.22,153
192.25,130
191.29,113
190.33,96
189.36,76
188.40,55
187.43,37
186.47,22
185.50,15
184.54,12
183.58,9
182.61,3
181.65,-8
180.68,-20
179.72,-29
178.75,-32
177.79,-29
176.83,-20
175.86,-9
174.90,1
173.93,10
172.97,17
172.00,22
171.04,21
170.08,15
169.11,-3
168.15,-14
167.18,-25
166.22,-30
165.26,-29
164.29,-25
163.33,-21
162.36,-18
161.40,-14
160.43,-10
159.47,-5
158.51,1
157.54,6
156.58,10
155.61,12
154.65,12
153.68,11
152.72,11
151.76,18
150.79,32
149.83,53
148.86,78
147.90,105
146.93,136
145.97,171
145.01,211
144.04,254
143.08,304
142.11,362
141.15,427
140.19,499
139.22,578
138.26,667
137.29,762
136.33,859
135.36,955
134.40,1044
133.44,1130
132.47,1225
131.51,1337
130.54,1472
129.58,1638
128.61,1814
127.65,1988
126.69,2156
125.72,2319
124.76,2491
123.79,2677
122.83,2885
121.86,3119
120.90,3380
119.94,3655
118.97,3937
118.01,4227
117.04,4522
116.08,4818
115.11,5131
114.15,5466
113.19,5822
112.22,6198
111.26,6598
110.29,7023
109.33,7468
108.37,7931
107.40,8409
106.44,8900
105.47,9397
104.51,9905
103.54,10427
102.58,10965
101.62,11507
100.65,12058
99.69,12615
98.72,13174
97.76,13730
96.79,14278
95.83,14832
94.87,15397
93.90,15979
92.94,16585
91.97,17202
91.01,17826
90.04,18451
89.08,19058
88.12,19625
87.15,20173
86.19,20716
85.22,21269
84.26,21827
83.30,22374
82.33,22916
81.37,23443
80.40,23939
79.44,24399
78.47,24889
77.51,25400
76.55,25912
