Created As Omnic File,PLAS 160
Raman Shift / cm-1,INT
3418.58,4
3417.61,4
3416.65,4
3415.68,4
3414.72,2
3413.76,-0
3412.79,-0
3411.83,0
3410.86,1
3409.90,1
3408.94,1
3407.97,0
3407.01,1
3406.04,2
3405.08,3
3404.11,5
3403.15,6
3402.19,5
3401.22,3
3400.26,4
3399.29,5
3398.33,4
3397.36,3
3396.40,3
3395.44,3
3394.47,5
3393.51,6
3392.54,7
3391.58,7
3390.61,8
3389.65,5
3388.69,-1
3387.72,-0
3386.76,3
3385.79,2
3384.83,2
3383.87,2
3382.90,3
3381.94,3
3380.97,2
3380.01,-1
3379.04,-3
3378.08,-3
3377.12,0
3376.15,2
3375.19,5
3374.22,6
3373.26,5
3372.29,2
3371.33,1
3370.37,1
3369.40,-0
3368.44,-1
3367.47,-1
3366.51,-1
3365.54,-2
3364.58,-3
3363.62,-5
3362.65,-4
3361.69,-2
3360.72,-2
3359.76,-2
3358.80,-2
3357.83,-0
3356.87,1
3355.90,1
3354.94,-2
3353.97,-4
3353.01,-5
3352.05,-8
3351.08,-9
3350.12,-9
3349.15,-7
3348.19,-3
3347.22,2
3346.26,1
3345.30,-3
3344.33,-4
3343.37,-6
3342.40,-5
3341.44,-4
3340.47,-5
3339.51,-4
3338.55,1
3337.58,2
3336.62,-1
3335.65,-3
3334.69,-3
3333.73,-1
3332.76,1
3331.80,-2
3330.83,-5
3329.87,-5
3328.90,-5
3327.94,-7
3326.98,-8
3326.01,-7
3325.05,-6
3324.08,-3
3323.12,-1
3322.15,1
3321.19,1
3320.23,-1
3319.26,-2
3318.30,-3
3317.33,-2
3316.37,-7
3315.40,-8
3314.44,-8
3313.48,-7
3312.51,-6
3311.55,-7
3310.58,-6
3309.62,-0
3308.66,3
3307.69,0
3306.73,-2
3305.76,-3
3304.80,-3
3303.83,-2
3302.87,-1
3301.91,-1
3300.94,-2
3299.98,-2
3299.01,2
3298.05,4
3297.08,3
3296.12,1
3295.16,-1
3294.19,1
3293.23,2
3292.26,3
3291.30,5
3290.33,3
3289.37,1
3288.41,-1
3287.44,-2
3286.48,-1
3285.51,3
3284.55,5
3283.59,7
3282.62,9
3281.66,11
3280.69,9
3279.73,6
3278.76,4
3277.80,2
3276.84,1
3275.87,-0
3274.91,-0
3273.94,-0
3272.98,-2
3272.01,0
3271.05,5
3270.09,5
3269.12,-2
3268.16,-2
3267.19,1
3266.23,1
3265.26,2
3264.30,6
3263.34,7
3262.37,5
3261.41,3
3260.44,6
3259.48,7
3258.51,3
3257.55,1
3256.59,3
3255.62,4
3254.66,4
3253.69,1
3252.73,0
3251.77,-3
3250.80,-3
3249.84,-4
3248.87,-4
3247.91,-1
3246.94,2
3245.98,3
3245.02,3
3244.05,1
3243.09,-2
3242.12,-4
3241.16,-6
3240.19,-5
3239.23,-3
3238.27,-4
3237.30,-3
3236.34,-1
3235.37,-2
3234.41,-4
3233.44,-6
3232.48,-8
3231.52,-7
3230.55,-6
3229.59,-7
3228.62,-8
3227.66,-9
3226.70,-9
3225.73,-10
3224.77,-11
3223.80,-9
3222.84,-9
3221.87,-11
3220.91,-11
3219.95,-8
3218.98,-7
3218.02,-10
3217.05,-11
3216.09,-11
3215.12,-9
3214.16,-7
3213.20,-8
3212.23,-10
3211.27,-10
3210.30,-12
3209.34,-14
3208.37,-15
3207.41,-14
3206.45,-12
3205.48,-12
3204.52,-12
3203.55,-12
3202.59,-10
3201.63,-9
3200.66,-9
3199.70,-13
3198.73,-14
3197.77,-12
3196.80,-11
3195.84,-10
3194.88,-10
3193.91,-10
3192.95,-11
3191.98,-12
3191.02,-13
3190.05,-14
3189.09,-12
3188.13,-9
3187.16,-7
3186.20,-5
3185.23,-5
3184.27,-5
3183.30,-5
3182.34,-5
3181.38,-5
3180.41,-4
3179.45,-2
3178.48,-3
3177.52,-4
3176.56,-3
3175.59,-3
3174.63,-4
3173.66,-6
3172.70,-7
3171.73,-6
3170.77,-4
3169.81,-3
3168.84,-2
3167.88,-1
3166.91,-3
3165.95,-5
3164.98,-5
3164.02,-4
3163.06,-6
3162.09,-6
3161.13,-1
3160.16,2
3159.20,1
3158.23,-2
3157.27,-3
3156.31,-3
3155.34,-3
3154.38,-2
3153.41,-2
3152.45,-6
3151.49,-8
3150.52,-5
3149.56,-1
3148.59,-1
3147.63,-5
3146.66,-3
3145.70,3
3144.74,1
3143.77,-2
3142.81,-2
3141.84,0
3140.88,1
3139.91,-0
3138.95,-3
3137.99,-4
3137.02,-1
3136.06,2
3135.09,2
3134.13,1
3133.16,2
3132.20,3
3131.24,3
3130.27,2
3129.31,1
3128.34,0
3127.38,0
3126.42,1
3125.45,4
3124.49,4
3123.52,1
3122.56,2
3121.59,4
3120.63,3
3119.67,3
3118.70,3
3117.74,3
3116.77,-0
3115.81,-3
3114.84,-5
3113.88,-6
3112.92,-8
3111.95,-7
3110.99,-1
3110.02,3
3109.06,0
3108.09,-3
3107.13,-4
3106.17,-8
3105.20,-13
3104.24,-16
3103.27,-13
3102.31,-9
3101.34,-7
3100.38,-7
3099.42,-6
3098.45,-7
3097.49,-8
3096.52,-5
3095.56,-2
3094.60,-2
3093.63,-4
3092.67,-5
3091.70,-3
3090.74,-2
3089.77,-1
3088.81,0
3087.85,1
3086.88,3
3085.92,5
3084.95,3
3083.99,3
3083.02,6
3082.06,8
3081.10,7
3080.13,5
3079.17,4
3078.20,4
3077.24,5
3076.27,9
3075.31,12
3074.35,14
3073.38,14
3072.42,13
3071.45,14
3070.49,15
3069.53,16
3068.56,17
3067.60,19
3066.63,21
3065.67,22
3064.70,24
3063.74,26
3062.78,28
3061.81,31
3060.85,31
3059.88,32
3058.92,35
3057.95,40
3056.99,46
3056.03,51
3055.06,52
3054.10,54
3053.13,61
3052.17,67
3051.20,71
3050.24,73
3049.28,75
3048.31,77
3047.35,78
3046.38,83
3045.42,91
3044.46,96
3043.49,96
3042.53,97
3041.56,100
3040.60,105
3039.63,110
3038.67,115
3037.71,122
3036.74,126
3035.78,127
3034.81,129
3033.85,135
3032.88,139
3031.92,142
3030.96,145
3029.99,144
3029.03,149
3028.06,157
3027.10,163
3026.13,169
3025.17,174
3024.21,178
3023.24,181
3022.28,185
3021.31,189
3020.35,192
3019.39,200
3018.42,211
3017.46,221
3016.49,229
3015.53,238
3014.56,244
3013.60,248
3012.64,253
3011.67,263
3010.71,272
3009.74,279
3008.78,286
3007.81,299
3006.85,311
3005.89,318
3004.92,328
3003.96,343
3002.99,358
3002.03,374
3001.06,391
3000.10,407
2999.14,425
2998.17,444
2997.21,464
2996.24,487
2995.28,511
2994.32,537
2993.35,566
2992.39,593
2991.42,622
2990.46,655
2989.49,690
2988.53,725
2987.57,762
2986.60,801
2985.64,841
2984.67,886
2983.71,930
2982.74,977
2981.78,1032
2980.82,1093
2979.85,1152
2978.89,1213
2977.92,1283
2976.96,1358
2975.99,1432
2975.03,1508
2974.07,1595
2973.10,1687
2972.14,1777
2971.17,1870
2970.21,1969
2969.25,2076
2968.28,2187
2967.32,2298
2966.35,2406
2965.39,2511
2964.42,2626
2963.46,2743
2962.50,2853
2961.53,2963
2960.57,3070
2959.60,3173
2958.64,3274
2957.67,3374
2956.71,3477
2955.75,3580
2954.78,3682
2953.82,3775
2952.85,3865
2951.89,3965
2950.92,4083
2949.96,4208
2949.00,4334
2948.03,4468
2947.07,4612
2946.10,4769
2945.14,4937
2944.17,5112
2943.21,5299
2942.25,5500
2941.28,5708
2940.32,5908
2939.35,6095
2938.39,6261
2937.43,6405
2936.46,6523
2935.50,6616
2934.53,6677
2933.57,6712
2932.60,6728
2931.64,6724
2930.68,6707
2929.71,6683
2928.75,6651
2927.78,6616
2926.82,6593
2925.85,6574
2924.89,6544
2923.93,6512
2922.96,6471
2922.00,6428
2921.03,6392
2920.07,6361
2919.10,6338
2918.14,6325
2917.18,6322
2916.21,6321
2915.25,6326
2914.28,6341
2913.32,6371
2912.36,6415
2911.39,6462
2910.43,6510
2909.46,6559
2908.50,6612
2907.53,6669
2906.57,6726
2905.61,6786
2904.64,6846
2903.68,6897
2902.71,6952
2901.75,7002
2900.78,7038
2899.82,7063
2898.86,7087
2897.89,7121
2896.93,7154
2895.96,7170
2895.00,7174
2894.03,7185
2893.07,7208
2892.11,7246
2891.14,7302
2890.18,7373
2889.21,7459
2888.25,7570
2887.29,7730
2886.32,7965
2885.36,8278
2884.39,8661
2883.43,9039
2882.46,9333
2881.50,9518
2880.54,9490
2879.57,9280
2878.61,8846
2877.64,8310
2876.68,7808
2875.71,7376
2874.75,7063
2873.79,6839
2872.82,6688
2871.86,6589
2870.89,6525
2869.93,6491
2868.96,6474
2868.00,6483
2867.04,6509
2866.07,6544
2865.11,6580
2864.14,6628
2863.18,6698
2862.22,6769
2861.25,6829
2860.29,6895
2859.32,6978
2858.36,7071
2857.39,7165
2856.43,7261
2855.47,7369
2854.50,7496
2853.54,7638
2852.57,7776
2851.61,7905
2850.64,8008
2849.68,8085
2848.72,8096
2847.75,8003
2846.79,7810
2845.82,7508
2844.86,7102
2843.89,6591
2842.93,6021
2841.97,5427
2841.00,4836
2840.04,4261
2839.07,3722
2838.11,3223
2837.15,2779
2836.18,2404
2835.22,2081
2834.25,1802
2833.29,1565
2832.32,1367
2831.36,1203
2830.40,1066
2829.43,950
2828.47,851
2827.50,767
2826.54,695
2825.57,630
2824.61,569
2823.65,518
2822.68,479
2821.72,446
2820.75,413
2819.79,382
2818.82,352
2817.86,325
2816.90,304
2815.93,282
2814.97,258
2814.00,241
2813.04,228
2812.08,213
2811.11,194
2810.15,180
2809.18,170
2808.22,163
2807.25,155
2806.29,144
2805.33,130
2804.36,120
2803.40,114
2802.43,107
2801.47,99
2800.50,90
2799.54,84
2798.58,79
2797.61,75
2796.65,71
2795.68,67
2794.72,61
2793.75,51
2792.79,43
2791.83,40
2790.86,36
2789.90,31
2788.93,26
2787.97,22
2787.00,22
2786.04,25
2785.08,26
2784.11,22
2783.15,16
2782.18,12
2781.22,8
2780.26,4
2779.29,2
2778.33,4
2777.36,6
2776.40,7
2775.43,5
2774.47,0
2773.51,-0
2772.54,4
2771.58,7
2770.61,7
2769.65,5
2768.68,4
2767.72,7
2766.76,11
2765.79,14
2764.83,14
2763.86,14
2762.90,14
2761.93,16
2760.97,22
2760.01,29
2759.04,32
2758.08,36
2757.11,42
2756.15,47
2755.19,50
2754.22,53
2753.26,58
2752.29,65
2751.33,73
2750.36,82
2749.40,91
2748.44,98
2747.47,103
2746.51,106
2745.54,112
2744.58,120
2743.61,130
2742.65,143
2741.69,158
2740.72,173
2739.76,184
2738.79,196
2737.83,213
2736.86,234
2735.90,252
2734.94,270
2733.97,292
2733.01,314
2732.04,334
2731.08,353
2730.12,374
2729.15,396
2728.19,417
2727.22,435
2726.26,448
2725.29,454
2724.33,458
2723.37,460
2722.40,460
2721.44,456
2720.47,451
2719.51,445
2718.54,436
2717.58,424
2716.62,413
2715.65,401
2714.69,388
2713.72,374
2712.76,354
2711.79,328
2710.83,309
2709.87,299
2708.90,286
2707.94,263
2706.97,244
2706.01,229
2705.05,214
2704.08,202
2703.12,193
2702.15,182
2701.19,170
2700.22,157
2699.26,143
2698.30,127
2697.33,116
2696.37,110
2695.40,105
2694.44,97
2693.47,90
2692.51,84
2691.55,80
2690.58,77
2689.62,75
2688.65,71
2687.69,65
2686.72,57
2685.76,52
2684.80,51
2683.83,48
2682.87,42
2681.90,34
2680.94,29
2679.98,27
2679.01,25
2678.05,24
2677.08,22
2676.12,20
2675.15,19
2674.19,16
2673.23,10
2672.26,4
2671.30,-1
2670.33,-3
2669.37,-2
2668.40,-1
2667.44,-0
2666.48,1
2665.51,3
2664.55,5
2663.58,6
2662.62,5
2661.65,2
2660.69,1
2659.73,2
2658.76,6
2657.80,8
2656.83,9
2655.87,8
2654.91,5
2653.94,2
2652.98,1
2652.01,3
2651.05,6
2650.08,7
2649.12,5
2648.16,-2
2647.19,-11
2646.23,-15
2645.26,-8
2644.30,-6
2643.33,-9
2642.37,-11
2641.41,-11
2640.44,-12
2639.48,-15
2638.51,-18
2637.55,-18
2636.58,-18
2635.62,-23
2634.66,-27
2633.69,-24
2632.73,-21
2631.76,-23
2630.80,-23
2629.83,-20
2628.87,-14
2627.91,-9
2626.94,-9
2625.98,-15
2625.01,-23
2624.05,-21
2623.09,-13
2622.12,-9
2621.16,-9
2620.19,-8
2619.23,-5
2618.26,-5
2617.30,-5
2616.34,-3
2615.37,-0
2614.41,0
2613.44,-3
2612.48,-2
2611.51,1
2610.55,2
2609.59,1
2608.62,4
2607.66,9
2606.69,12
2605.73,14
2604.76,15
2603.80,15
2602.84,16
2601.87,20
2600.91,21
2599.94,19
2598.98,17
2598.02,16
2597.05,16
2596.09,18
2595.12,21
2594.16,23
2593.19,23
2592.23,23
2591.27,21
2590.30,19
2589.34,18
2588.37,23
2587.41,30
2586.44,27
2585.48,20
2584.52,20
2583.55,23
2582.59,19
2581.62,15
2580.66,15
2579.69,16
2578.73,14
2577.77,10
2576.80,7
2575.84,8
2574.87,9
2573.91,9
2572.95,9
2571.98,7
2571.02,4
2570.05,6
2569.09,8
2568.12,8
2567.16,9
2566.20,9
2565.23,8
2564.27,9
2563.30,9
2562.34,4
2561.37,1
2560.41,4
2559.45,7
2558.48,8
2557.52,9
2556.55,7
2555.59,6
2554.62,4
2553.66,1
2552.70,0
2551.73,0
2550.77,-1
2549.80,-4
2548.84,-6
2547.88,-7
2546.91,-4
2545.95,2
2544.98,4
2544.02,3
2543.05,4
2542.09,3
2541.13,-0
2540.16,-5
2539.20,-8
2538.23,-6
2537.27,-2
2536.30,-1
2535.34,-3
2534.38,-5
2533.41,-7
2532.45,-8
2531.48,-8
2530.52,-6
2529.55,-5
2528.59,-4
2527.63,-3
2526.66,-2
2525.70,-1
2524.73,-1
2523.77,-2
2522.81,-4
2521.84,-5
2520.88,-7
2519.91,-10
2518.95,-7
2517.98,-4
2517.02,-4
2516.06,-3
2515.09,0
2514.13,4
2513.16,5
2512.20,2
2511.23,-2
2510.27,-1
2509.31,1
2508.34,0
2507.38,1
2506.41,-1
2505.45,-3
2504.48,-3
2503.52,-0
2502.56,2
2501.59,3
2500.63,2
2499.66,-0
2498.70,-3
2497.74,-4
2496.77,-1
2495.81,3
2494.84,5
2493.88,5
2492.91,-1
2491.95,-8
2490.99,-6
2490.02,3
2489.06,9
2488.09,8
2487.13,5
2486.16,0
2485.20,-3
2484.24,-4
2483.27,-1
2482.31,2
2481.34,2
2480.38,-2
2479.41,-6
2478.45,-9
2477.49,-8
2476.52,-7
2475.56,-5
2474.59,-4
2473.63,-4
2472.66,-5
2471.70,-7
2470.74,-8
2469.77,-7
2468.81,-4
2467.84,0
2466.88,-0
2465.92,-5
2464.95,-7
2463.99,-5
2463.02,-3
2462.06,-3
2461.09,-2
2460.13,-1
2459.17,0
2458.20,2
2457.24,4
2456.27,4
2455.31,5
2454.34,7
2453.38,11
2452.42,15
2451.45,16
2450.49,15
2449.52,14
2448.56,14
2447.59,15
2446.63,18
2445.67,23
2444.70,27
2443.74,33
2442.77,40
2441.81,47
2440.85,49
2439.88,49
2438.92,49
2437.95,50
2436.99,52
2436.02,52
2435.06,51
2434.10,47
2433.13,43
2432.17,38
2431.20,35
2430.24,33
2429.27,33
2428.31,31
2427.35,28
2426.38,26
2425.42,25
2424.45,24
2423.49,23
2422.52,21
2421.56,18
2420.60,16
2419.63,18
2418.67,16
2417.70,13
2416.74,10
2415.78,7
2414.81,2
2413.85,-3
2412.88,-5
2411.92,-2
2410.95,4
2409.99,6
2409.03,3
2408.06,-3
2407.10,-8
2406.13,-10
2405.17,-8
2404.20,-5
2403.24,-3
2402.28,1
2401.31,4
2400.35,3
2399.38,1
2398.42,0
2397.45,1
2396.49,0
2395.53,-4
2394.56,-7
2393.60,-4
2392.63,1
2391.67,-2
2390.71,-7
2389.74,-7
2388.78,-4
2387.81,2
2386.85,8
2385.88,7
2384.92,4
2383.96,-1
2382.99,-6
2382.03,-9
2381.06,-6
2380.10,-3
2379.13,-1
2378.17,1
2377.21,4
2376.24,4
2375.28,1
2374.31,-3
2373.35,-5
2372.38,-6
2371.42,-6
2370.46,-5
2369.49,-3
2368.53,-3
2367.56,-3
2366.60,-3
2365.64,0
2364.67,3
2363.71,-1
2362.74,-8
2361.78,-10
2360.81,-10
2359.85,-8
2358.89,-7
2357.92,-9
2356.96,-10
2355.99,-10
2355.03,-8
2354.06,-6
2353.10,-4
2352.14,-6
2351.17,-11
2350.21,-15
2349.24,-15
2348.28,-12
2347.31,-8
2346.35,-5
2345.39,-7
2344.42,-12
2343.46,-15
2342.49,-13
2341.53,-13
2340.57,-17
2339.60,-18
2338.64,-14
2337.67,-9
2336.71,-7
2335.74,-9
2334.78,-12
2333.82,-16
2332.85,-18
2331.89,-18
2330.92,-12
2329.96,-4
2328.99,2
2328.03,3
2327.07,0
2326.10,-4
2325.14,-6
2324.17,-6
2323.21,-7
2322.24,-10
2321.28,-15
2320.32,-19
2319.35,-19
2318.39,-14
2317.42,-8
2316.46,-6
2315.49,-9
2314.53,-11
2313.57,-11
2312.60,-10
2311.64,-8
2310.67,-8
2309.71,-8
2308.75,-8
2307.78,-6
2306.82,-6
2305.85,-7
2304.89,-10
2303.92,-12
2302.96,-13
2302.00,-11
2301.03,-11
2300.07,-10
2299.10,-6
2298.14,-4
2297.17,-4
2296.21,-5
2295.25,-8
2294.28,-11
2293.32,-9
2292.35,-5
2291.39,-2
2290.42,-1
2289.46,-2
2288.50,-5
2287.53,-6
2286.57,-4
2285.60,-4
2284.64,-6
2283.68,-4
2282.71,0
2281.75,3
2280.78,6
2279.82,7
2278.85,7
2277.89,5
2276.93,1
2275.96,-0
2275.00,1
2274.03,1
2273.07,-0
2272.10,-1
2271.14,-0
2270.18,2
2269.21,-0
2268.25,-4
2267.28,-4
2266.32,-2
2265.35,-0
2264.39,0
2263.43,2
2262.46,5
2261.50,6
2260.53,4
2259.57,4
2258.61,8
2257.64,6
2256.68,-2
2255.71,-8
2254.75,-6
2253.78,1
2252.82,7
2251.86,8
2250.89,6
2249.93,3
2248.96,6
2248.00,14
2247.03,15
2246.07,5
2245.11,-2
2244.14,-6
2243.18,-6
2242.21,-2
2241.25,1
2240.28,-1
2239.32,-3
2238.36,-2
2237.39,1
2236.43,2
2235.46,-1
2234.50,-4
2233.54,-4
2232.57,-2
2231.61,-1
2230.64,2
2229.68,6
2228.71,5
2227.75,-4
2226.79,-13
2225.82,-17
2224.86,-18
2223.89,-14
2222.93,-7
2221.96,-1
2221.00,1
2220.04,2
2219.07,-1
2218.11,-6
2217.14,-8
2216.18,-6
2215.21,-2
2214.25,3
2213.29,5
2212.32,2
2211.36,-2
2210.39,-3
2209.43,-3
2208.47,-3
2207.50,-3
2206.54,-0
2205.57,2
2204.61,6
2203.64,10
2202.68,12
2201.72,14
2200.75,16
2199.79,17
2198.82,14
2197.86,10
2196.89,11
2195.93,13
2194.97,11
2194.00,6
2193.04,6
2192.07,13
2191.11,23
2190.14,32
2189.18,37
2188.22,37
2187.25,36
2186.29,38
2185.32,40
2184.36,41
2183.40,40
2182.43,40
2181.47,39
2180.50,38
2179.54,36
2178.57,34
2177.61,31
2176.65,28
2175.68,25
2174.72,21
2173.75,18
2172.79,16
2171.82,18
2170.86,19
2169.90,19
2168.93,16
2167.97,13
2167.00,9
2166.04,5
2165.07,3
2164.11,4
2163.15,6
2162.18,8
2161.22,8
2160.25,6
2159.29,4
2158.32,3
2157.36,5
2156.40,5
2155.43,3
2154.47,-2
2153.50,-3
2152.54,0
2151.58,2
2150.61,1
2149.65,-4
2148.68,-9
2147.72,-13
2146.75,-9
2145.79,-3
2144.83,-1
2143.86,-2
2142.90,-6
2141.93,-12
2140.97,-16
2140.00,-16
2139.04,-14
2138.08,-12
2137.11,-11
2136.15,-9
2135.18,-8
2134.22,-7
2133.25,-6
2132.29,-7
2131.33,-9
2130.36,-11
2129.40,-11
2128.43,-12
2127.47,-12
2126.51,-12
2125.54,-11
2124.58,-10
2123.61,-11
2122.65,-13
2121.68,-15
2120.72,-15
2119.76,-12
2118.79,-7
2117.83,-6
2116.86,-8
2115.90,-9
2114.93,-7
2113.97,-6
2113.01,-8
2112.04,-10
2111.08,-9
2110.11,-7
2109.15,-8
2108.18,-9
2107.22,-9
2106.26,-7
2105.29,-6
2104.33,-4
2103.36,-3
2102.40,-4
2101.44,-4
2100.47,-4
2099.51,-5
2098.54,-8
2097.58,-11
2096.61,-11
2095.65,-10
2094.69,-12
2093.72,-16
2092.76,-16
2091.79,-12
2090.83,-10
2089.86,-9
2088.90,-9
2087.94,-8
2086.97,-6
2086.01,-7
2085.04,-7
2084.08,-2
2083.11,4
2082.15,6
2081.19,5
2080.22,3
2079.26,0
2078.29,-1
2077.33,-0
2076.37,1
2075.40,0
2074.44,-0
2073.47,-1
2072.51,-0
2071.54,-0
2070.58,-0
2069.62,-0
2068.65,0
2067.69,2
2066.72,4
2065.76,6
2064.79,10
2063.83,13
2062.87,12
2061.90,9
2060.94,7
2059.97,7
2059.01,5
2058.04,3
2057.08,2
2056.12,4
2055.15,5
2054.19,4
2053.22,4
2052.26,3
2051.30,1
2050.33,4
2049.37,8
2048.40,9
2047.44,9
2046.47,8
2045.51,7
2044.55,6
2043.58,5
2042.62,5
2041.65,4
2040.69,5
2039.72,8
2038.76,12
2037.80,11
2036.83,8
2035.87,3
2034.90,-0
2033.94,-1
2032.97,2
2032.01,4
2031.05,3
2030.08,2
2029.12,2
2028.15,2
2027.19,2
2026.23,2
2025.26,2
2024.30,-0
2023.33,-2
2022.37,-2
2021.40,-1
2020.44,1
2019.48,0
2018.51,-3
2017.55,-6
2016.58,-6
2015.62,-3
2014.65,-3
2013.69,-4
2012.73,-1
2011.76,5
2010.80,11
2009.83,14
2008.87,13
2007.90,11
2006.94,7
2005.98,5
2005.01,3
2004.05,-0
2003.08,-3
2002.12,-4
2001.15,-1
2000.19,2
1999.23,1
1998.26,-1
1997.30,-3
1996.33,-3
1995.37,-2
1994.41,1
1993.44,-1
1992.48,-6
1991.51,-5
1990.55,0
1989.58,6
1988.62,10
1987.66,14
1986.69,13
1985.73,9
1984.76,6
1983.80,4
1982.83,4
1981.87,7
1980.91,9
1979.94,10
1978.98,8
1978.01,5
1977.05,5
1976.08,7
1975.12,8
1974.16,8
1973.19,7
1972.23,5
1971.26,6
1970.30,9
1969.34,12
1968.37,12
1967.41,10
1966.44,7
1965.48,8
1964.51,11
1963.55,13
1962.59,13
1961.62,14
1960.66,14
1959.69,10
1958.73,4
1957.76,-1
1956.80,-2
1955.84,-0
1954.87,5
1953.91,12
1952.94,12
1951.98,9
1951.01,8
1950.05,8
1949.09,10
1948.12,13
1947.16,14
1946.19,11
1945.23,7
1944.27,5
1943.30,7
1942.34,9
1941.37,12
1940.41,14
1939.44,13
1938.48,10
1937.52,6
1936.55,4
1935.59,3
1934.62,4
1933.66,6
1932.69,6
1931.73,7
1930.77,8
1929.80,7
1928.84,5
1927.87,3
1926.91,2
1925.94,0
1924.98,1
1924.02,2
1923.05,1
1922.09,0
1921.12,-0
1920.16,1
1919.20,2
1918.23,4
1917.27,6
1916.30,3
1915.34,-2
1914.37,-5
1913.41,-5
1912.45,-6
1911.48,-9
1910.52,-7
1909.55,-1
1908.59,3
1907.62,-1
1906.66,-6
1905.70,-7
1904.73,-5
1903.77,-2
1902.80,-1
1901.84,0
1900.87,1
1899.91,1
1898.95,3
1897.98,8
1897.02,8
1896.05,7
1895.09,8
1894.13,9
1893.16,8
1892.20,8
1891.23,7
1890.27,6
1889.30,4
1888.34,1
1887.38,1
1886.41,7
1885.45,16
1884.48,21
1883.52,20
1882.55,15
1881.59,11
1880.63,9
1879.66,10
1878.70,12
1877.73,13
1876.77,13
1875.80,11
1874.84,10
1873.88,13
1872.91,16
1871.95,19
1870.98,20
1870.02,18
1869.06,17
1868.09,18
1867.13,20
1866.16,19
1865.20,18
1864.23,16
1863.27,17
1862.31,22
1861.34,25
1860.38,23
1859.41,18
1858.45,17
1857.48,20
1856.52,21
1855.56,20
1854.59,20
1853.63,22
1852.66,25
1851.70,24
1850.73,19
1849.77,14
1848.81,10
1847.84,11
1846.88,16
1845.91,18
1844.95,18
1843.98,18
1843.02,20
1842.06,22
1841.09,22
1840.13,19
1839.16,13
1838.20,9
1837.24,8
1836.27,9
1835.31,10
1834.34,9
1833.38,6
1832.41,7
1831.45,9
1830.49,8
1829.52,4
1828.56,2
1827.59,1
1826.63,2
1825.66,7
1824.70,13
1823.74,12
1822.77,7
1821.81,6
1820.84,5
1819.88,1
1818.91,-4
1817.95,-4
1816.99,0
1816.02,3
1815.06,1
1814.09,-1
1813.13,-1
1812.17,3
1811.20,6
1810.24,10
1809.27,11
1808.31,11
1807.34,10
1806.38,10
1805.42,9
1804.45,6
1803.49,1
1802.52,-1
1801.56,-0
1800.59,2
1799.63,5
1798.67,8
1797.70,9
1796.74,9
1795.77,9
1794.81,9
1793.84,9
1792.88,8
1791.92,7
1790.95,5
1789.99,3
1789.02,4
1788.06,6
1787.10,7
1786.13,7
1785.17,8
1784.20,12
1783.24,17
1782.27,19
1781.31,18
1780.35,17
1779.38,16
1778.42,15
1777.45,13
1776.49,15
1775.52,18
1774.56,19
1773.60,18
1772.63,18
1771.67,20
1770.70,24
1769.74,26
1768.77,22
1767.81,20
1766.85,21
1765.88,23
1764.92,19
1763.95,15
1762.99,20
1762.03,29
1761.06,29
1760.10,25
1759.13,21
1758.17,18
1757.20,16
1756.24,15
1755.28,17
1754.31,22
1753.35,28
1752.38,34
1751.42,38
1750.45,42
1749.49,50
1748.53,62
1747.56,79
1746.60,98
1745.63,116
1744.67,132
1743.70,147
1742.74,159
1741.78,170
1740.81,178
1739.85,181
1738.88,178
1737.92,170
1736.96,163
1735.99,158
1735.03,152
1734.06,143
1733.10,134
1732.13,122
1731.17,109
1730.21,95
1729.24,83
1728.28,75
1727.31,68
1726.35,60
1725.38,47
1724.42,32
1723.46,22
1722.49,16
1721.53,12
1720.56,10
1719.60,10
1718.63,9
1717.67,7
1716.71,5
1715.74,3
1714.78,1
1713.81,0
1712.85,-1
1711.89,-3
1710.92,-5
1709.96,-4
1708.99,-3
1708.03,-5
1707.06,-8
1706.10,-9
1705.14,-8
1704.17,-6
1703.21,-4
1702.24,-3
1701.28,-3
1700.31,-3
1699.35,-3
1698.39,-2
1697.42,-2
1696.46,-1
1695.49,-3
1694.53,-7
1693.56,-9
1692.60,-5
1691.64,0
1690.67,1
1689.71,0
1688.74,0
1687.78,1
1686.81,3
1685.85,5
1684.89,5
1683.92,3
1682.96,1
1681.99,0
1681.03,1
1680.07,3
1679.10,6
1678.14,8
1677.17,7
1676.21,4
1675.24,7
1674.28,15
1673.32,18
1672.35,16
1671.39,15
1670.42,14
1669.46,11
1668.49,8
1667.53,9
1666.57,14
1665.60,21
1664.64,24
1663.67,22
1662.71,16
1661.74,12
1660.78,11
1659.82,12
1658.85,14
1657.89,18
1656.92,21
1655.96,20
1655.00,17
1654.03,15
1653.07,16
1652.10,19
1651.14,24
1650.17,29
1649.21,33
1648.25,34
1647.28,33
1646.32,32
1645.35,31
1644.39,31
1643.42,32
1642.46,29
1641.50,25
1640.53,22
1639.57,21
1638.60,20
1637.64,16
1636.67,12
1635.71,9
1634.75,9
1633.78,8
1632.82,7
1631.85,6
1630.89,6
1629.93,5
1628.96,3
1628.00,1
1627.03,-2
1626.07,-5
1625.10,-5
1624.14,-3
1623.18,-0
1622.21,2
1621.25,2
1620.28,0
1619.32,-3
1618.35,-5
1617.39,-5
1616.43,-2
1615.46,-1
1614.50,-0
1613.53,2
1612.57,2
1611.60,-0
1610.64,-2
1609.68,-2
1608.71,-0
1607.75,3
1606.78,6
1605.82,10
1604.86,13
1603.89,16
1602.93,16
1601.96,13
1601.00,7
1600.03,-0
1599.07,-6
1598.11,-8
1597.14,-6
1596.18,-1
1595.21,5
1594.25,7
1593.28,2
1592.32,-6
1591.36,-10
1590.39,-7
1589.43,-4
1588.46,-5
1587.50,-8
1586.53,-8
1585.57,-7
1584.61,-3
1583.64,0
1582.68,-2
1581.71,-8
1580.75,-11
1579.79,-8
1578.82,-2
1577.86,2
1576.89,3
1575.93,1
1574.96,-2
1574.00,-6
1573.04,-11
1572.07,-13
1571.11,-10
1570.14,-6
1569.18,-2
1568.21,-1
1567.25,-3
1566.29,-7
1565.32,-11
1564.36,-12
1563.39,-11
1562.43,-10
1561.46,-10
1560.50,-10
1559.54,-10
1558.57,-8
1557.61,-5
1556.64,-1
1555.68,-0
1554.72,-0
1553.75,-2
1552.79,-3
1551.82,-6
1550.86,-9
1549.89,-11
1548.93,-11
1547.97,-9
1547.00,-9
1546.04,-13
1545.07,-16
1544.11,-19
1543.14,-19
1542.18,-17
1541.22,-16
1540.25,-17
1539.29,-19
1538.32,-22
1537.36,-23
1536.39,-23
1535.43,-20
1534.47,-17
1533.50,-12
1532.54,-6
1531.57,-2
1530.61,-2
1529.64,-2
1528.68,-2
1527.72,0
1526.75,0
1525.79,-2
1524.82,-3
1523.86,-3
1522.90,-5
1521.93,-6
1520.97,-7
1520.00,-8
1519.04,-9
1518.07,-3
1517.11,7
1516.15,12
1515.18,9
1514.22,3
1513.25,2
1512.29,8
1511.32,13
1510.36,13
1509.40,11
1508.43,12
1507.47,19
1506.50,26
1505.54,32
1504.57,38
1503.61,43
1502.65,46
1501.68,47
1500.72,47
1499.75,47
1498.79,47
1497.83,47
1496.86,51
1495.90,61
1494.93,75
1493.97,86
1493.00,89
1492.04,88
1491.08,91
1490.11,98
1489.15,110
1488.18,126
1487.22,141
1486.25,150
1485.29,157
1484.33,170
1483.36,190
1482.40,210
1481.43,228
1480.47,249
1479.50,275
1478.54,306
1477.58,342
1476.61,381
1475.65,420
1474.68,459
1473.72,498
1472.76,545
1471.79,597
1470.83,652
1469.86,711
1468.90,774
1467.93,839
1466.97,903
1466.01,967
1465.04,1030
1464.08,1091
1463.11,1149
1462.15,1205
1461.18,1249
1460.22,1281
1459.26,1318
1458.29,1359
1457.33,1399
1456.36,1436
1455.40,1466
1454.43,1486
1453.47,1500
1452.51,1514
1451.54,1534
1450.58,1559
1449.61,1587
1448.65,1616
1447.69,1642
1446.72,1665
1445.76,1699
1444.79,1747
1443.83,1803
1442.86,1864
1441.90,1924
1440.94,1972
1439.97,2001
1439.01,1990
1438.04,1948
1437.08,1875
1436.11,1768
1435.15,1639
1434.19,1495
1433.22,1340
1432.26,1188
1431.29,1040
1430.33,899
1429.36,775
1428.40,666
1427.44,580
1426.47,512
1425.51,458
1424.54,413
1423.58,375
1422.62,347
1421.65,332
1420.69,329
1419.72,332
1418.76,329
1417.79,314
1416.83,290
1415.87,256
1414.90,214
1413.94,171
1412.97,126
1412.01,96
1411.04,75
1410.08,58
1409.12,44
1408.15,31
1407.19,20
1406.22,13
1405.26,11
1404.29,10
1403.33,8
1402.37,4
1401.40,1
1400.44,0
1399.47,3
1398.51,7
1397.55,8
1396.58,6
1395.62,5
1394.65,6
1393.69,10
1392.72,16
1391.76,23
1390.80,26
1389.83,28
1388.87,29
1387.90,34
1386.94,42
1385.97,54
1385.01,64
1384.05,70
1383.08,79
1382.12,93
1381.15,107
1380.19,123
1379.22,138
1378.26,150
1377.30,162
1376.33,176
1375.37,192
1374.40,208
1373.44,223
1372.47,233
1371.51,243
1370.55,250
1369.58,253
1368.62,252
1367.65,249
1366.69,244
1365.73,236
1364.76,226
1363.80,220
1362.83,214
1361.87,211
1360.90,210
1359.94,209
1358.98,206
1358.01,201
1357.05,197
1356.08,197
1355.12,198
1354.15,198
1353.19,200
1352.23,206
1351.26,211
1350.30,211
1349.33,211
1348.37,212
1347.40,215
1346.44,218
1345.48,218
1344.51,216
1343.55,216
1342.58,218
1341.62,218
1340.66,214
1339.69,211
1338.73,212
1337.76,214
1336.80,214
1335.83,213
1334.87,214
1333.91,218
1332.94,224
1331.98,233
1331.01,245
1330.05,254
1329.08,261
1328.12,269
1327.16,277
1326.19,287
1325.23,296
1324.26,306
1323.30,319
1322.33,336
1321.37,354
1320.41,365
1319.44,375
1318.48,392
1317.51,416
1316.55,440
1315.59,459
1314.62,481
1313.66,512
1312.69,544
1311.73,572
1310.76,597
1309.80,622
1308.84,651
1307.87,681
1306.91,709
1305.94,736
1304.98,765
1304.01,797
1303.05,828
1302.09,861
1301.12,900
1300.16,981
1299.19,1096
1298.23,1221
1297.26,1349
1296.30,1455
1295.34,1507
1294.37,1501
1293.41,1409
1292.44,1205
1291.48,972
1290.52,777
1289.55,610
1288.59,496
1287.62,433
1286.66,395
1285.69,364
1284.73,342
1283.77,313
1282.80,290
1281.84,269
1280.87,255
1279.91,247
1278.94,242
1277.98,237
1277.02,231
1276.05,223
1275.09,215
1274.12,208
1273.16,201
1272.19,194
1271.23,187
1270.27,181
1269.30,175
1268.34,169
1267.37,160
1266.41,152
1265.45,144
1264.48,137
1263.52,135
1262.55,133
1261.59,128
1260.62,120
1259.66,113
1258.70,107
1257.73,104
1256.77,103
1255.80,103
1254.84,101
1253.87,94
1252.91,84
1251.95,76
1250.98,69
1250.02,64
1249.05,62
1248.09,61
1247.12,62
1246.16,64
1245.20,64
1244.23,63
1243.27,62
1242.30,58
1241.34,54
1240.38,50
1239.41,47
1238.45,47
1237.48,50
1236.52,56
1235.55,58
1234.59,58
1233.63,55
1232.66,51
1231.70,45
1230.73,40
1229.77,34
1228.80,29
1227.84,25
1226.88,23
1225.91,21
1224.95,21
1223.98,21
1223.02,21
1222.05,20
1221.09,18
1220.13,18
1219.16,21
1218.20,24
1217.23,21
1216.27,15
1215.30,12
1214.34,15
1213.38,18
1212.41,16
1211.45,10
1210.48,4
1209.52,1
1208.56,2
1207.59,4
1206.63,6
1205.66,6
1204.70,5
1203.73,5
1202.77,6
1201.81,7
1200.84,9
1199.88,10
1198.91,7
1197.95,3
1196.98,0
1196.02,-0
1195.06,0
1194.09,-0
1193.13,-1
1192.16,-2
1191.20,-4
1190.23,-6
1189.27,-5
1188.31,-3
1187.34,-0
1186.38,4
1185.41,10
1184.45,10
1183.49,7
1182.52,10
1181.56,17
1180.59,25
1179.63,32
1178.66,39
1177.70,47
1176.74,54
1175.77,60
1174.81,69
1173.84,79
1172.88,91
1171.91,104
1170.95,112
1169.99,112
1169.02,108
1168.06,104
1167.09,98
1166.13,90
1165.16,80
1164.20,71
1163.24,65
1162.27,61
1161.31,58
1160.34,56
1159.38,55
1158.42,52
1157.45,49
1156.49,49
1155.52,50
1154.56,53
1153.59,57
1152.63,59
1151.67,58
1150.70,56
1149.74,55
1148.77,56
1147.81,61
1146.84,71
1145.88,82
1144.92,94
1143.95,105
1142.99,115
1142.02,124
1141.06,136
1140.09,150
1139.13,164
1138.17,181
1137.20,202
1136.24,231
1135.27,273
1134.31,325
1133.35,384
1132.38,448
1131.42,511
1130.45,573
1129.49,626
1128.52,659
1127.56,669
1126.60,653
1125.63,612
1124.67,554
1123.70,495
1122.74,430
1121.77,373
1120.81,322
1119.85,279
1118.88,246
1117.92,222
1116.95,201
1115.99,184
1115.02,171
1114.06,160
1113.10,152
1112.13,145
1111.17,139
1110.20,132
1109.24,127
1108.28,124
1107.31,124
1106.35,124
1105.38,124
1104.42,123
1103.45,119
1102.49,114
1101.53,110
1100.56,113
1099.60,122
1098.63,132
1097.67,139
1096.70,145
1095.74,150
1094.78,155
1093.81,160
1092.85,167
1091.88,179
1090.92,191
1089.95,204
1088.99,215
1088.03,227
1087.06,237
1086.10,247
1085.13,255
1084.17,261
1083.21,264
1082.24,265
1081.28,265
1080.31,264
1079.35,263
1078.38,261
1077.42,259
1076.46,255
1075.49,253
1074.53,252
1073.56,253
1072.60,256
1071.63,264
1070.67,280
1069.71,310
1068.74,355
1067.78,419
1066.81,498
1065.85,578
1064.88,652
1063.92,711
1062.96,741
1061.99,739
1061.03,706
1060.06,639
1059.10,556
1058.13,470
1057.17,384
1056.21,308
1055.24,252
1054.28,206
1053.31,171
1052.35,152
1051.39,136
1050.42,124
1049.46,113
1048.49,105
1047.53,98
1046.56,92
1045.60,89
1044.64,87
1043.67,85
1042.71,83
1041.74,83
1040.78,87
1039.81,92
1038.85,94
1037.89,93
1036.92,93
1035.96,93
1034.99,90
1034.03,84
1033.06,75
1032.10,66
1031.14,58
1030.17,57
1029.21,59
1028.24,61
1027.28,59
1026.32,55
1025.35,51
1024.39,51
1023.42,52
1022.46,45
1021.49,37
1020.53,35
1019.57,36
1018.60,35
1017.64,30
1016.67,24
1015.71,19
1014.74,14
1013.78,10
1012.82,7
1011.85,3
1010.89,0
1009.92,-2
1008.96,-3
1007.99,-4
1007.03,-4
1006.07,-2
1005.10,0
1004.14,3
1003.17,7
1002.21,10
1001.25,9
1000.28,4
999.32,4
998.35,7
997.39,9
996.42,11
995.46,13
994.50,14
993.53,13
992.57,10
991.60,11
990.64,14
989.67,17
988.71,19
987.75,20
986.78,20
985.82,18
984.85,18
983.89,18
982.92,17
981.96,14
981.00,11
980.03,10
979.07,12
978.10,10
977.14,5
976.18,1
975.21,0
974.25,2
973.28,2
972.32,1
971.35,1
970.39,6
969.43,14
968.46,19
967.50,20
966.53,16
965.57,10
964.60,7
963.64,7
962.68,10
961.71,17
960.75,25
959.78,30
958.82,30
957.85,23
956.89,17
955.93,16
954.96,15
954.00,15
953.03,15
952.07,16
951.11,17
950.14,17
949.18,15
948.21,8
947.25,4
946.28,0
945.32,-3
944.36,-8
943.39,-15
942.43,-22
941.46,-26
940.50,-26
939.53,-25
938.57,-22
937.61,-20
936.64,-17
935.68,-16
934.71,-16
933.75,-14
932.78,-10
931.82,-6
930.86,-4
929.89,-6
928.93,-11
927.96,-16
927.00,-18
926.04,-19
925.07,-17
924.11,-14
923.14,-7
922.18,2
921.21,13
920.25,24
919.29,35
918.32,38
917.36,32
916.39,22
915.43,13
914.46,3
913.50,-1
912.54,-3
911.57,-6
910.61,-10
909.64,-10
908.68,-10
907.71,-11
906.75,-12
905.79,-13
904.82,-15
903.86,-18
902.89,-22
901.93,-21
900.96,-11
900.00,-0
899.04,0
898.07,-6
897.11,-12
896.14,-15
895.18,-15
894.22,-10
893.25,-1
892.29,4
891.32,2
890.36,0
889.39,5
888.43,15
887.47,23
886.50,18
885.54,11
884.57,0
883.61,-11
882.64,-18
881.68,-19
880.72,-21
879.75,-17
878.79,-9
877.82,-3
876.86,0
875.89,4
874.93,14
873.97,28
873.00,38
872.04,43
871.07,46
870.11,44
869.15,36
868.18,25
867.22,14
866.25,4
865.29,-5
864.32,-11
863.36,-9
862.40,-4
861.43,0
860.47,-1
859.50,-8
858.54,-17
857.57,-25
856.61,-32
855.65,-38
854.68,-43
853.72,-43
852.75,-36
851.79,-30
850.82,-30
849.86,-32
848.90,-36
847.93,-40
846.97,-46
846.00,-44
845.04,-39
844.08,-33
843.11,-24
842.15,-13
841.18,-2
840.22,7
839.25,10
838.29,6
837.33,-11
836.36,-51
835.40,-102
834.43,-127
833.47,-81
832.50,-7
831.54,13
830.58,14
829.61,15
828.65,20
827.68,21
826.72,15
825.75,5
824.79,-1
823.83,-2
822.86,-2
821.90,-2
820.93,-6
819.97,-9
819.01,-10
818.04,-11
817.08,-16
816.11,-22
815.15,-25
814.18,-22
813.22,-16
812.26,-14
811.29,-14
810.33,-13
809.36,-8
808.40,-2
807.43,0
806.47,-1
805.51,0
804.54,2
803.58,3
802.61,0
801.65,-5
800.68,-6
799.72,3
798.76,13
797.79,18
796.83,18
795.86,13
794.90,4
793.94,-6
792.97,-9
792.01,-14
791.04,-17
790.08,-19
789.11,-21
788.15,-24
787.19,-27
786.22,-28
785.26,-28
784.29,-27
783.33,-27
782.36,-28
781.40,-28
780.44,-29
779.47,-34
778.51,-36
777.54,-34
776.58,-31
775.61,-32
774.65,-38
773.69,-36
772.72,-31
771.76,-28
770.79,-26
769.83,-23
768.87,-19
767.90,-16
766.94,-13
765.97,-8
765.01,-1
764.04,4
763.08,4
762.12,0
761.15,-11
760.19,-22
759.22,-29
758.26,-31
757.29,-32
756.33,-31
755.37,-26
754.40,-25
753.44,-26
752.47,-28
751.51,-30
750.54,-34
749.58,-37
748.62,-36
747.65,-32
746.69,-25
745.72,-17
744.76,-13
743.79,-15
742.83,-22
741.87,-28
740.90,-30
739.94,-28
738.97,-23
738.01,-18
737.05,-14
736.08,-12
735.12,-7
734.15,2
733.19,14
732.22,26
731.26,35
730.30,40
729.33,40
728.37,40
727.40,39
726.44,37
725.47,30
724.51,23
723.55,16
722.58,9
721.62,4
720.65,0
719.69,-1
718.72,-1
717.76,-1
716.80,0
715.83,3
714.87,5
713.90,6
712.94,5
711.98,0
711.01,-4
710.05,-6
709.08,-5
708.12,-3
707.15,-2
706.19,-1
705.23,-1
704.26,0
703.30,-0
702.33,-1
701.37,-3
700.40,-7
699.44,-15
698.48,-21
697.51,-21
696.55,-19
695.58,-16
694.62,-16
693.65,-17
692.69,-21
691.73,-25
690.76,-29
689.80,-31
688.83,-35
687.87,-34
686.91,-4
685.94,9
684.98,-17
684.01,-48
683.05,-32
682.08,13
681.12,5
680.16,-19
679.19,-30
678.23,-26
677.26,-17
676.30,-14
675.33,-10
674.37,-7
673.41,-8
672.44,-10
671.48,-12
670.51,-12
669.55,-15
668.58,-17
667.62,-18
666.66,-19
665.69,-21
664.73,-22
663.76,-17
662.80,-9
661.84,-2
660.87,4
659.91,9
658.94,14
657.98,19
657.01,22
656.05,25
655.09,28
654.12,32
653.16,37
652.19,41
651.23,47
650.26,53
649.30,57
648.34,61
647.37,67
646.41,74
645.44,82
644.48,90
643.51,96
642.55,100
641.59,100
640.62,98
639.66,95
638.69,93
637.73,96
636.77,104
635.80,117
634.84,131
633.87,140
632.91,145
631.94,152
630.98,162
630.02,171
629.05,170
628.09,164
627.12,154
626.16,140
625.19,122
624.23,103
623.27,85
622.30,68
621.34,55
620.37,44
619.41,35
618.44,27
617.48,20
616.52,15
615.55,11
614.59,10
613.62,11
612.66,11
611.70,8
610.73,5
609.77,4
608.80,4
607.84,4
606.87,4
605.91,4
604.95,3
603.98,4
603.02,3
602.05,2
601.09,-0
600.12,-3
599.16,-5
598.20,-7
597.23,-9
596.27,-9
595.30,-10
594.34,-10
593.37,-8
592.41,-5
591.45,-2
590.48,1
589.52,4
588.55,6
587.59,5
586.62,2
585.66,-0
584.70,-0
583.73,2
582.77,7
581.80,11
580.84,13
579.88,14
578.91,13
577.95,13
576.98,12
576.02,13
575.05,17
574.09,21
573.13,22
572.16,21
571.20,16
570.23,13
569.27,13
568.30,14
567.34,16
566.38,16
565.41,18
564.45,21
563.48,23
562.52,24
561.55,21
560.59,15
559.63,10
558.66,8
557.70,7
556.73,7
555.77,10
554.81,13
553.84,15
552.88,15
551.91,15
550.95,16
549.98,17
549.02,18
548.06,18
547.09,14
546.13,8
545.16,3
544.20,1
543.23,2
542.27,4
541.31,5
540.34,5
539.38,4
538.41,1
537.45,-3
536.48,-6
535.52,-8
534.56,-7
533.59,-6
532.63,-3
531.66,1
530.70,2
529.74,0
528.77,-3
527.81,-5
526.84,-3
525.88,0
524.91,0
523.95,-1
522.99,-1
522.02,1
521.06,6
520.09,7
519.13,6
518.16,4
517.20,3
516.24,2
515.27,-1
514.31,-2
513.34,-1
512.38,2
511.41,5
510.45,3
509.49,-3
508.52,-8
507.56,-9
506.59,-5
505.63,1
504.67,6
503.70,8
502.74,10
501.77,12
500.81,13
499.84,12
498.88,8
497.92,4
496.95,-0
495.99,-3
495.02,-3
494.06,-2
493.09,-0
492.13,-2
491.17,-5
490.20,-5
489.24,-1
488.27,7
487.31,22
486.34,40
485.38,54
484.42,60
483.45,62
482.49,57
481.52,49
480.56,38
479.60,22
478.63,5
477.67,-7
476.70,-10
475.74,-11
474.77,-13
473.81,-16
472.85,-17
471.88,-17
470.92,-16
469.95,-13
468.99,-10
468.02,-8
467.06,-10
466.10,-15
465.13,-17
464.17,-17
463.20,-16
462.24,-12
461.27,-8
460.31,-8
459.35,-12
458.38,-15
457.42,-13
456.45,-5
455.49,4
454.53,7
453.56,6
452.60,4
451.63,3
450.67,5
449.70,8
448.74,11
447.78,14
446.81,15
445.85,12
444.88,10
443.92,7
442.95,6
441.99,5
441.03,4
440.06,3
439.10,1
438.13,-1
437.17,-4
436.20,-8
435.24,-10
434.28,-10
433.31,-11
432.35,-12
431.38,-13
430.42,-12
429.45,-8
428.49,-2
427.53,3
426.56,4
425.60,3
424.63,0
423.67,-1
422.71,-0
421.74,0
420.78,1
419.81,1
418.85,1
417.88,1
416.92,2
415.96,3
414.99,3
414.03,0
413.06,-5
412.10,-7
411.13,-9
410.17,-9
409.21,-8
408.24,-6
407.28,-4
406.31,-1
405.35,3
404.38,5
403.42,6
402.46,7
401.49,6
400.53,4
399.56,2
398.60,2
397.64,0
396.67,-4
395.71,-8
394.74,-7
393.78,-2
392.81,5
391.85,6
390.89,3
389.92,-4
388.96,-11
387.99,-16
387.03,-13
386.06,-6
385.10,0
384.14,4
383.17,5
382.21,2
381.24,-3
380.28,-8
379.31,-12
378.35,-14
377.39,-14
376.42,-13
375.46,-10
374.49,-9
373.53,-12
372.57,-19
371.60,-22
370.64,-21
369.67,-20
368.71,-20
367.74,-20
366.78,-21
365.82,-24
364.85,-24
363.89,-22
362.92,-18
361.96,-16
360.99,-18
360.03,-22
359.07,-25
358.10,-25
357.14,-21
356.17,-13
355.21,-4
354.24,4
353.28,7
352.32,4
351.35,-4
350.39,-13
349.42,-18
348.46,-18
347.50,-14
346.53,-8
345.57,-4
344.60,-2
343.64,-1
342.67,0
341.71,0
340.75,-1
339.78,-3
338.82,-5
337.85,-7
336.89,-9
335.92,-9
334.96,-7
334.00,-6
333.03,-6
332.07,-7
331.10,-8
330.14,-9
329.17,-8
328.21,-4
327.25,2
326.28,7
325.32,8
324.35,8
323.39,7
322.43,7
321.46,9
320.50,10
319.53,10
318.57,8
317.60,3
316.64,-2
315.68,-5
314.71,-7
313.75,-8
312.78,-7
311.82,-4
310.85,-2
309.89,-1
308.93,-1
307.96,-4
307.00,-10
306.03,-15
305.07,-16
304.10,-13
303.14,-8
302.18,-3
301.21,-2
300.25,-3
299.28,-6
298.32,-9
297.36,-10
296.39,-6
295.43,-1
294.46,5
293.50,9
292.53,8
291.57,4
290.61,1
289.64,0
288.68,1
287.71,2
286.75,4
285.78,6
284.82,8
283.86,9
282.89,7
281.93,4
280.96,-0
280.00,-3
279.03,-4
278.07,-5
277.11,-7
276.14,-8
275.18,-9
274.21,-9
273.25,-9
272.28,-8
271.32,-8
270.36,-7
269.39,-4
268.43,-1
267.46,-0
266.50,-2
265.54,-5
264.57,-8
263.61,-11
262.64,-13
261.68,-13
260.71,-10
259.75,-6
258.79,-1
257.82,3
256.86,3
255.89,1
254.93,-2
253.96,-4
253.00,-6
252.04,-4
251.07,-2
250.11,-0
249.14,0
248.18,0
247.21,1
246.25,4
245.29,7
244.32,8
243.36,6
242.39,4
241.43,3
240.47,2
239.50,3
238.54,5
237.57,6
236.61,8
235.64,10
234.68,13
233.72,18
232.75,23
231.79,42
230.82,75
229.86,114
228.89,145
227.93,161
226.97,170
226.00,172
225.04,165
224.07,147
223.11,111
222.14,71
221.18,41
220.22,28
219.25,23
218.29,17
217.32,13
216.36,11
215.40,9
214.43,5
213.47,-2
212.50,-7
211.54,-9
210.57,-5
209.61,2
208.65,9
207.68,10
206.72,7
205.75,-0
204.79,-9
203.82,-11
202.86,-9
201.90,-4
200.93,1
199.97,4
199.00,5
198.04,6
197.07,8
196.11,11
195.15,13
194.18,14
193.22,13
192.25,11
191.29,9
190.33,6
189.36,1
188.40,-4
187.43,-7
186.47,-6
185.50,-3
184.54,-1
183.58,-0
182.61,-2
181.65,-4
180.68,-6
179.72,-6
178.75,-3
177.79,1
176.83,4
175.86,3
174.90,4
173.93,7
172.97,9
172.00,9
171.04,5
170.08,1
169.11,-0
168.15,1
167.18,1
166.22,1
165.26,0
164.29,3
163.33,7
162.36,11
161.40,13
160.43,15
159.47,15
158.51,16
157.54,16
156.58,15
155.61,13
154.65,10
153.68,7
152.72,4
151.76,1
150.79,0
149.83,1
148.86,-1
147.90,-2
146.93,-3
145.97,-5
145.01,-9
144.04,-13
143.08,-14
142.11,-13
141.15,-13
140.19,-12
139.22,-12
138.26,-6
137.29,1
136.33,6
135.36,7
134.40,1
133.44,-6
132.47,-9
131.51,-7
130.54,-2
129.58,8
128.61,18
127.65,27
126.69,31
125.72,32
124.76,34
123.79,38
122.83,45
121.86,55
120.90,69
119.94,84
118.97,97
118.01,108
117.04,116
116.08,120
115.11,123
114.15,127
113.19,135
112.22,148
111.26,167
110.29,189
109.33,210
108.37,232
107.40,252
106.44,270
105.47,286
104.51,299
103.54,311
102.58,324
101.62,344
100.65,366
99.69,390
98.72,413
97.76,435
96.79,456
95.83,480
94.87,505
93.90,532
92.94,562
91.97,593
91.01,622
90.04,650
89.08,677
88.12,703
87.15,731
86.19,762
85.22,798
84.26,837
83.30,868
82.33,897
81.37,928
80.40,962
79.44,997
78.47,1037
77.51,1082
76.55,1130
