Created As Omnic File,PLAS 113
Raman Shift / cm-1,INT
3418.58,5
3417.61,7
3416.65,6
3415.68,3
3414.72,3
3413.76,3
3412.79,3
3411.83,-0
3410.86,-9
3409.90,-11
3408.94,-4
3407.97,-1
3407.01,-7
3406.04,-14
3405.08,-16
3404.11,-11
3403.15,-2
3402.19,-1
3401.22,-7
3400.26,-7
3399.29,-5
3398.33,-9
3397.36,-13
3396.40,-12
3395.44,-9
3394.47,-2
3393.51,-2
3392.54,-6
3391.58,-3
3390.61,8
3389.65,13
3388.69,7
3387.72,-10
3386.76,-20
3385.79,-10
3384.83,2
3383.87,3
3382.90,0
3381.94,-3
3380.97,-3
3380.01,-2
3379.04,-8
3378.08,-15
3377.12,-7
3376.15,8
3375.19,15
3374.22,18
3373.26,18
3372.29,15
3371.33,11
3370.37,7
3369.40,3
3368.44,1
3367.47,-2
3366.51,-3
3365.54,0
3364.58,-1
3363.62,-3
3362.65,2
3361.69,9
3360.72,11
3359.76,8
3358.80,5
3357.83,5
3356.87,10
3355.90,11
3354.94,2
3353.97,-7
3353.01,-18
3352.05,-17
3351.08,-5
3350.12,5
3349.15,9
3348.19,9
3347.22,6
3346.26,7
3345.30,10
3344.33,12
3343.37,7
3342.40,-2
3341.44,-7
3340.47,-6
3339.51,-2
3338.55,1
3337.58,-2
3336.62,-9
3335.65,-14
3334.69,-16
3333.73,-9
3332.76,1
3331.80,9
3330.83,12
3329.87,1
3328.90,-18
3327.94,-29
3326.98,-30
3326.01,-23
3325.05,-10
3324.08,3
3323.12,3
3322.15,-7
3321.19,-6
3320.23,-1
3319.26,-4
3318.30,-9
3317.33,-8
3316.37,-5
3315.40,-3
3314.44,-2
3313.48,-9
3312.51,-16
3311.55,-14
3310.58,-13
3309.62,-12
3308.66,-7
3307.69,-1
3306.73,-0
3305.76,-3
3304.80,-4
3303.83,-4
3302.87,-3
3301.91,-3
3300.94,-0
3299.98,5
3299.01,1
3298.05,-4
3297.08,-3
3296.12,-3
3295.16,-1
3294.19,6
3293.23,14
3292.26,18
3291.30,15
3290.33,4
3289.37,-5
3288.41,-7
3287.44,-6
3286.48,-8
3285.51,-11
3284.55,-11
3283.59,-10
3282.62,-8
3281.66,-6
3280.69,-2
3279.73,4
3278.76,7
3277.80,6
3276.84,-0
3275.87,-8
3274.91,-15
3273.94,-14
3272.98,-9
3272.01,-10
3271.05,-14
3270.09,-10
3269.12,-2
3268.16,-4
3267.19,-11
3266.23,-8
3265.26,-1
3264.30,1
3263.34,-1
3262.37,-3
3261.41,-4
3260.44,-1
3259.48,-1
3258.51,-6
3257.55,-7
3256.59,0
3255.62,3
3254.66,4
3253.69,2
3252.73,-4
3251.77,-10
3250.80,-18
3249.84,-23
3248.87,-22
3247.91,-16
3246.94,-6
3245.98,-7
3245.02,-8
3244.05,1
3243.09,7
3242.12,2
3241.16,-5
3240.19,-9
3239.23,-11
3238.27,-14
3237.30,-10
3236.34,0
3235.37,2
3234.41,-2
3233.44,-4
3232.48,-4
3231.52,4
3230.55,10
3229.59,4
3228.62,-8
3227.66,-10
3226.70,-8
3225.73,-15
3224.77,-17
3223.80,-10
3222.84,-8
3221.87,-15
3220.91,-18
3219.95,-14
3218.98,-11
3218.02,-11
3217.05,-8
3216.09,3
3215.12,6
3214.16,-1
3213.20,-3
3212.23,-4
3211.27,-6
3210.30,-9
3209.34,-9
3208.37,-7
3207.41,-9
3206.45,-11
3205.48,-7
3204.52,-5
3203.55,-7
3202.59,-5
3201.63,5
3200.66,10
3199.70,5
3198.73,-1
3197.77,-6
3196.80,-8
3195.84,-6
3194.88,-2
3193.91,-1
3192.95,0
3191.98,1
3191.02,-1
3190.05,-3
3189.09,-6
3188.13,-8
3187.16,-3
3186.20,4
3185.23,5
3184.27,2
3183.30,-0
3182.34,-2
3181.38,-3
3180.41,-1
3179.45,1
3178.48,-1
3177.52,-6
3176.56,-5
3175.59,0
3174.63,-2
3173.66,-8
3172.70,-8
3171.73,2
3170.77,16
3169.81,26
3168.84,24
3167.88,15
3166.91,10
3165.95,7
3164.98,-1
3164.02,-9
3163.06,-10
3162.09,-5
3161.13,0
3160.16,3
3159.20,1
3158.23,-3
3157.27,1
3156.31,9
3155.34,14
3154.38,18
3153.41,12
3152.45,0
3151.49,-7
3150.52,-2
3149.56,9
3148.59,13
3147.63,10
3146.66,11
3145.70,14
3144.74,10
3143.77,4
3142.81,8
3141.84,15
3140.88,15
3139.91,12
3138.95,10
3137.99,10
3137.02,10
3136.06,9
3135.09,11
3134.13,13
3133.16,12
3132.20,13
3131.24,10
3130.27,4
3129.31,-1
3128.34,-1
3127.38,1
3126.42,-5
3125.45,-13
3124.49,-7
3123.52,7
3122.56,16
3121.59,19
3120.63,13
3119.67,9
3118.70,4
3117.74,-3
3116.77,-3
3115.81,-2
3114.84,-9
3113.88,-15
3112.92,-9
3111.95,3
3110.99,13
3110.02,16
3109.06,9
3108.09,2
3107.13,-1
3106.17,-4
3105.20,-6
3104.24,-9
3103.27,-18
3102.31,-17
3101.34,-7
3100.38,3
3099.42,14
3098.45,8
3097.49,-10
3096.52,-11
3095.56,-3
3094.60,-1
3093.63,-5
3092.67,-6
3091.70,-4
3090.74,-6
3089.77,-9
3088.81,0
3087.85,7
3086.88,5
3085.92,-1
3084.95,-7
3083.99,-6
3083.02,4
3082.06,11
3081.10,6
3080.13,-1
3079.17,-1
3078.20,-1
3077.24,0
3076.27,3
3075.31,5
3074.35,9
3073.38,12
3072.42,10
3071.45,11
3070.49,15
3069.53,20
3068.56,28
3067.60,38
3066.63,40
3065.67,36
3064.70,34
3063.74,30
3062.78,31
3061.81,32
3060.85,30
3059.88,29
3058.92,36
3057.95,48
3056.99,53
3056.03,49
3055.06,42
3054.10,39
3053.13,43
3052.17,48
3051.20,49
3050.24,43
3049.28,31
3048.31,23
3047.35,25
3046.38,33
3045.42,35
3044.46,33
3043.49,33
3042.53,35
3041.56,43
3040.60,48
3039.63,41
3038.67,35
3037.71,32
3036.74,33
3035.78,33
3034.81,31
3033.85,28
3032.88,26
3031.92,26
3030.96,34
3029.99,39
3029.03,34
3028.06,30
3027.10,30
3026.13,34
3025.17,39
3024.21,40
3023.24,37
3022.28,32
3021.31,26
3020.35,15
3019.39,19
3018.42,35
3017.46,42
3016.49,43
3015.53,43
3014.56,42
3013.60,45
3012.64,50
3011.67,48
3010.71,44
3009.74,42
3008.78,40
3007.81,42
3006.85,47
3005.89,53
3004.92,57
3003.96,56
3002.99,52
3002.03,51
3001.06,54
3000.10,61
2999.14,68
2998.17,70
2997.21,65
2996.24,56
2995.28,54
2994.32,60
2993.35,73
2992.39,86
2991.42,84
2990.46,79
2989.49,88
2988.53,106
2987.57,112
2986.60,104
2985.64,100
2984.67,107
2983.71,114
2982.74,123
2981.78,131
2980.82,138
2979.85,149
2978.89,163
2977.92,175
2976.96,186
2975.99,202
2975.03,219
2974.07,231
2973.10,239
2972.14,249
2971.17,260
2970.21,277
2969.25,298
2968.28,315
2967.32,331
2966.35,352
2965.39,369
2964.42,382
2963.46,394
2962.50,401
2961.53,411
2960.57,425
2959.60,434
2958.64,434
2957.67,435
2956.71,440
2955.75,448
2954.78,452
2953.82,450
2952.85,450
2951.89,458
2950.92,471
2949.96,485
2949.00,495
2948.03,504
2947.07,517
2946.10,528
2945.14,535
2944.17,553
2943.21,588
2942.25,630
2941.28,670
2940.32,706
2939.35,739
2938.39,775
2937.43,812
2936.46,838
2935.50,852
2934.53,874
2933.57,904
2932.60,928
2931.64,940
2930.68,943
2929.71,941
2928.75,947
2927.78,961
2926.82,973
2925.85,974
2924.89,967
2923.93,959
2922.96,955
2922.00,956
2921.03,960
2920.07,963
2919.10,963
2918.14,965
2917.18,971
2916.21,972
2915.25,959
2914.28,943
2913.32,954
2912.36,977
2911.39,983
2910.43,981
2909.46,987
2908.50,1000
2907.53,1014
2906.57,1025
2905.61,1037
2904.64,1048
2903.68,1055
2902.71,1068
2901.75,1082
2900.78,1088
2899.82,1089
2898.86,1090
2897.89,1096
2896.93,1102
2895.96,1097
2895.00,1085
2894.03,1084
2893.07,1086
2892.11,1077
2891.14,1070
2890.18,1071
2889.21,1068
2888.25,1057
2887.29,1048
2886.32,1047
2885.36,1050
2884.39,1043
2883.43,1026
2882.46,1019
2881.50,1020
2880.54,1017
2879.57,1024
2878.61,1046
2877.64,1055
2876.68,1053
2875.71,1055
2874.75,1063
2873.79,1074
2872.82,1083
2871.86,1082
2870.89,1068
2869.93,1052
2868.96,1045
2868.00,1050
2867.04,1068
2866.07,1082
2865.11,1081
2864.14,1080
2863.18,1091
2862.22,1102
2861.25,1104
2860.29,1110
2859.32,1133
2858.36,1162
2857.39,1185
2856.43,1199
2855.47,1209
2854.50,1217
2853.54,1218
2852.57,1206
2851.61,1183
2850.64,1147
2849.68,1103
2848.72,1048
2847.75,972
2846.79,890
2845.82,817
2844.86,747
2843.89,675
2842.93,608
2841.97,551
2841.00,491
2840.04,428
2839.07,372
2838.11,327
2837.15,283
2836.18,241
2835.22,210
2834.25,189
2833.29,170
2832.32,151
2831.36,136
2830.40,119
2829.43,103
2828.47,91
2827.50,85
2826.54,85
2825.57,79
2824.61,60
2823.65,45
2822.68,46
2821.72,55
2820.75,62
2819.79,62
2818.82,56
2817.86,42
2816.90,27
2815.93,19
2814.97,23
2814.00,29
2813.04,25
2812.08,16
2811.11,16
2810.15,20
2809.18,20
2808.22,22
2807.25,22
2806.29,15
2805.33,4
2804.36,1
2803.40,8
2802.43,9
2801.47,-1
2800.50,-6
2799.54,1
2798.58,11
2797.61,18
2796.65,19
2795.68,13
2794.72,7
2793.75,-0
2792.79,-3
2791.83,-0
2790.86,3
2789.90,6
2788.93,8
2787.97,6
2787.00,11
2786.04,28
2785.08,40
2784.11,31
2783.15,19
2782.18,16
2781.22,13
2780.26,8
2779.29,4
2778.33,1
2777.36,0
2776.40,3
2775.43,1
2774.47,-7
2773.51,-4
2772.54,11
2771.58,18
2770.61,6
2769.65,-12
2768.68,-21
2767.72,-20
2766.76,-13
2765.79,-8
2764.83,-9
2763.86,-8
2762.90,-5
2761.93,-3
2760.97,-6
2760.01,-8
2759.04,-3
2758.08,2
2757.11,-7
2756.15,-19
2755.19,-24
2754.22,-25
2753.26,-30
2752.29,-32
2751.33,-23
2750.36,-9
2749.40,3
2748.44,8
2747.47,0
2746.51,-16
2745.54,-27
2744.58,-30
2743.61,-25
2742.65,-14
2741.69,-6
2740.72,-2
2739.76,0
2738.79,0
2737.83,-4
2736.86,-10
2735.90,-11
2734.94,-8
2733.97,-1
2733.01,5
2732.04,4
2731.08,-2
2730.12,-4
2729.15,0
2728.19,11
2727.22,25
2726.26,34
2725.29,35
2724.33,28
2723.37,21
2722.40,23
2721.44,32
2720.47,29
2719.51,20
2718.54,22
2717.58,31
2716.62,41
2715.65,46
2714.69,45
2713.72,40
2712.76,30
2711.79,18
2710.83,15
2709.87,24
2708.90,31
2707.94,27
2706.97,20
2706.01,14
2705.05,6
2704.08,3
2703.12,10
2702.15,19
2701.19,15
2700.22,-3
2699.26,-14
2698.30,-7
2697.33,4
2696.37,10
2695.40,10
2694.44,2
2693.47,-5
2692.51,-5
2691.55,-3
2690.58,-1
2689.62,2
2688.65,4
2687.69,3
2686.72,-1
2685.76,0
2684.80,1
2683.83,1
2682.87,5
2681.90,6
2680.94,6
2679.98,7
2679.01,6
2678.05,7
2677.08,16
2676.12,24
2675.15,17
2674.19,3
2673.23,3
2672.26,9
2671.30,2
2670.33,-7
2669.37,-11
2668.40,-13
2667.44,-11
2666.48,-5
2665.51,0
2664.55,1
2663.58,-2
2662.62,-7
2661.65,-7
2660.69,1
2659.73,3
2658.76,3
2657.80,10
2656.83,16
2655.87,20
2654.91,19
2653.94,12
2652.98,4
2652.01,4
2651.05,10
2650.08,17
2649.12,17
2648.16,11
2647.19,1
2646.23,-7
2645.26,-9
2644.30,-4
2643.33,11
2642.37,26
2641.41,33
2640.44,32
2639.48,24
2638.51,12
2637.55,3
2636.58,-1
2635.62,-4
2634.66,-5
2633.69,0
2632.73,2
2631.76,-7
2630.80,-10
2629.83,4
2628.87,25
2627.91,38
2626.94,37
2625.98,26
2625.01,13
2624.05,7
2623.09,8
2622.12,3
2621.16,-9
2620.19,-4
2619.23,10
2618.26,12
2617.30,8
2616.34,12
2615.37,19
2614.41,19
2613.44,12
2612.48,9
2611.51,11
2610.55,13
2609.59,15
2608.62,15
2607.66,10
2606.69,3
2605.73,-1
2604.76,-2
2603.80,1
2602.84,4
2601.87,3
2600.91,2
2599.94,2
2598.98,1
2598.02,-5
2597.05,-8
2596.09,1
2595.12,12
2594.16,11
2593.19,7
2592.23,3
2591.27,1
2590.30,0
2589.34,-0
2588.37,-0
2587.41,1
2586.44,5
2585.48,8
2584.52,7
2583.55,-1
2582.59,-11
2581.62,-16
2580.66,-13
2579.69,-7
2578.73,2
2577.77,8
2576.80,2
2575.84,-7
2574.87,-12
2573.91,-12
2572.95,-6
2571.98,-2
2571.02,-8
2570.05,-13
2569.09,-11
2568.12,-1
2567.16,11
2566.20,14
2565.23,9
2564.27,2
2563.30,-3
2562.34,-5
2561.37,-1
2560.41,-1
2559.45,-6
2558.48,-11
2557.52,-12
2556.55,-8
2555.59,-1
2554.62,-1
2553.66,-7
2552.70,-12
2551.73,-13
2550.77,-12
2549.80,-11
2548.84,-20
2547.88,-32
2546.91,-30
2545.95,-18
2544.98,-11
2544.02,0
2543.05,7
2542.09,4
2541.13,-1
2540.16,-7
2539.20,-14
2538.23,-19
2537.27,-17
2536.30,-15
2535.34,-16
2534.38,-14
2533.41,-10
2532.45,-10
2531.48,-11
2530.52,-16
2529.55,-19
2528.59,-17
2527.63,-10
2526.66,-8
2525.70,-10
2524.73,-13
2523.77,-18
2522.81,-24
2521.84,-26
2520.88,-20
2519.91,-9
2518.95,2
2517.98,3
2517.02,-4
2516.06,-9
2515.09,-12
2514.13,-11
2513.16,-5
2512.20,1
2511.23,-6
2510.27,-19
2509.31,-25
2508.34,-16
2507.38,0
2506.41,10
2505.45,10
2504.48,4
2503.52,2
2502.56,9
2501.59,16
2500.63,14
2499.66,6
2498.70,6
2497.74,12
2496.77,19
2495.81,22
2494.84,21
2493.88,14
2492.91,11
2491.95,15
2490.99,14
2490.02,10
2489.06,12
2488.09,14
2487.13,8
2486.16,-2
2485.20,-7
2484.24,-1
2483.27,11
2482.31,17
2481.34,18
2480.38,17
2479.41,11
2478.45,-1
2477.49,-9
2476.52,-8
2475.56,-6
2474.59,-8
2473.63,-8
2472.66,-5
2471.70,-3
2470.74,-1
2469.77,5
2468.81,4
2467.84,-1
2466.88,-1
2465.92,0
2464.95,1
2463.99,6
2463.02,10
2462.06,9
2461.09,4
2460.13,-3
2459.17,-8
2458.20,-5
2457.24,-5
2456.27,-18
2455.31,-28
2454.34,-22
2453.38,-10
2452.42,-1
2451.45,0
2450.49,2
2449.52,4
2448.56,3
2447.59,-3
2446.63,-6
2445.67,-7
2444.70,-8
2443.74,-3
2442.77,15
2441.81,37
2440.85,40
2439.88,29
2438.92,20
2437.95,15
2436.99,11
2436.02,2
2435.06,-5
2434.10,1
2433.13,12
2432.17,19
2431.20,25
2430.24,25
2429.27,20
2428.31,16
2427.35,10
2426.38,7
2425.42,5
2424.45,2
2423.49,-1
2422.52,1
2421.56,7
2420.60,16
2419.63,25
2418.67,25
2417.70,15
2416.74,7
2415.78,-2
2414.81,-12
2413.85,-18
2412.88,-22
2411.92,-24
2410.95,-16
2409.99,-3
2409.03,2
2408.06,-2
2407.10,-11
2406.13,-20
2405.17,-23
2404.20,-17
2403.24,-10
2402.28,-2
2401.31,1
2400.35,3
2399.38,13
2398.42,18
2397.45,15
2396.49,11
2395.53,12
2394.56,8
2393.60,-4
2392.63,-14
2391.67,-18
2390.71,-16
2389.74,-7
2388.78,6
2387.81,13
2386.85,12
2385.88,11
2384.92,10
2383.96,5
2382.99,-4
2382.03,-9
2381.06,-1
2380.10,13
2379.13,21
2378.17,27
2377.21,27
2376.24,27
2375.28,32
2374.31,28
2373.35,11
2372.38,-4
2371.42,-4
2370.46,5
2369.49,11
2368.53,12
2367.56,15
2366.60,22
2365.64,29
2364.67,31
2363.71,15
2362.74,-9
2361.78,-15
2360.81,-5
2359.85,4
2358.89,4
2357.92,-5
2356.96,-13
2355.99,-14
2355.03,-9
2354.06,0
2353.10,7
2352.14,5
2351.17,-0
2350.21,-3
2349.24,-3
2348.28,0
2347.31,8
2346.35,14
2345.39,8
2344.42,-6
2343.46,-12
2342.49,-8
2341.53,-3
2340.57,-3
2339.60,-0
2338.64,7
2337.67,12
2336.71,7
2335.74,-4
2334.78,-7
2333.82,-6
2332.85,-12
2331.89,-18
2330.92,-19
2329.96,-12
2328.99,-0
2328.03,13
2327.07,16
2326.10,13
2325.14,14
2324.17,16
2323.21,14
2322.24,2
2321.28,-11
2320.32,-15
2319.35,-14
2318.39,-14
2317.42,-13
2316.46,-6
2315.49,4
2314.53,8
2313.57,10
2312.60,10
2311.64,6
2310.67,2
2309.71,1
2308.75,2
2307.78,2
2306.82,-1
2305.85,-10
2304.89,-18
2303.92,-16
2302.96,-7
2302.00,-2
2301.03,-4
2300.07,-10
2299.10,-12
2298.14,-9
2297.17,-6
2296.21,-3
2295.25,-2
2294.28,-3
2293.32,0
2292.35,10
2291.39,17
2290.42,17
2289.46,11
2288.50,2
2287.53,-4
2286.57,-2
2285.60,-5
2284.64,-11
2283.68,-5
2282.71,4
2281.75,9
2280.78,14
2279.82,16
2278.85,13
2277.89,10
2276.93,13
2275.96,17
2275.00,18
2274.03,14
2273.07,10
2272.10,7
2271.14,13
2270.18,21
2269.21,16
2268.25,4
2267.28,-2
2266.32,-1
2265.35,4
2264.39,13
2263.43,19
2262.46,19
2261.50,21
2260.53,29
2259.57,36
2258.61,28
2257.64,7
2256.68,-8
2255.71,-12
2254.75,-2
2253.78,18
2252.82,30
2251.86,27
2250.89,20
2249.93,13
2248.96,16
2248.00,27
2247.03,23
2246.07,0
2245.11,-11
2244.14,-7
2243.18,-2
2242.21,-3
2241.25,-7
2240.28,-6
2239.32,-1
2238.36,2
2237.39,1
2236.43,1
2235.46,-2
2234.50,-14
2233.54,-24
2232.57,-23
2231.61,-14
2230.64,-5
2229.68,-4
2228.71,-14
2227.75,-25
2226.79,-28
2225.82,-25
2224.86,-21
2223.89,-15
2222.93,-9
2221.96,-7
2221.00,-7
2220.04,-11
2219.07,-26
2218.11,-40
2217.14,-37
2216.18,-25
2215.21,-14
2214.25,-2
2213.29,5
2212.32,-3
2211.36,-16
2210.39,-24
2209.43,-24
2208.47,-23
2207.50,-24
2206.54,-24
2205.57,-21
2204.61,-8
2203.64,5
2202.68,5
2201.72,2
2200.75,0
2199.79,-2
2198.82,-6
2197.86,-10
2196.89,-13
2195.93,-17
2194.97,-23
2194.00,-29
2193.04,-30
2192.07,-24
2191.11,-14
2190.14,-4
2189.18,0
2188.22,-2
2187.25,-6
2186.29,-8
2185.32,-7
2184.36,-4
2183.40,-4
2182.43,-13
2181.47,-27
2180.50,-38
2179.54,-39
2178.57,-31
2177.61,-16
2176.65,-2
2175.68,7
2174.72,6
2173.75,-4
2172.79,-14
2171.82,-18
2170.86,-17
2169.90,-14
2168.93,-10
2167.97,-8
2167.00,-9
2166.04,-8
2165.07,-2
2164.11,3
2163.15,4
2162.18,2
2161.22,-3
2160.25,-7
2159.29,-3
2158.32,5
2157.36,4
2156.40,-5
2155.43,-14
2154.47,-18
2153.50,-16
2152.54,-6
2151.58,3
2150.61,6
2149.65,6
2148.68,9
2147.72,10
2146.75,5
2145.79,0
2144.83,3
2143.86,7
2142.90,4
2141.93,-4
2140.97,-13
2140.00,-18
2139.04,-20
2138.08,-21
2137.11,-18
2136.15,-8
2135.18,-2
2134.22,-6
2133.25,-7
2132.29,-2
2131.33,3
2130.36,4
2129.40,-1
2128.43,-11
2127.47,-19
2126.51,-22
2125.54,-20
2124.58,-15
2123.61,-7
2122.65,-2
2121.68,-7
2120.72,-12
2119.76,-11
2118.79,-7
2117.83,-1
2116.86,2
2115.90,-4
2114.93,-15
2113.97,-21
2113.01,-18
2112.04,-9
2111.08,-2
2110.11,1
2109.15,-2
2108.18,-10
2107.22,-15
2106.26,-17
2105.29,-17
2104.33,-10
2103.36,-3
2102.40,1
2101.44,3
2100.47,0
2099.51,-5
2098.54,-10
2097.58,-16
2096.61,-22
2095.65,-25
2094.69,-27
2093.72,-24
2092.76,-27
2091.79,-31
2090.83,-22
2089.86,-7
2088.90,-2
2087.94,-10
2086.97,-19
2086.01,-19
2085.04,-12
2084.08,-6
2083.11,-3
2082.15,-5
2081.19,-10
2080.22,-13
2079.26,-10
2078.29,-3
2077.33,5
2076.37,6
2075.40,-4
2074.44,-14
2073.47,-9
2072.51,1
2071.54,-4
2070.58,-21
2069.62,-34
2068.65,-35
2067.69,-27
2066.72,-14
2065.76,-4
2064.79,-2
2063.83,-2
2062.87,-1
2061.90,-2
2060.94,-5
2059.97,-7
2059.01,-7
2058.04,-6
2057.08,-6
2056.12,-10
2055.15,-15
2054.19,-14
2053.22,-8
2052.26,-5
2051.30,-8
2050.33,-14
2049.37,-20
2048.40,-21
2047.44,-18
2046.47,-13
2045.51,-8
2044.55,-4
2043.58,-1
2042.62,3
2041.65,6
2040.69,8
2039.72,5
2038.76,-6
2037.80,-7
2036.83,-1
2035.87,-6
2034.90,-11
2033.94,-8
2032.97,-3
2032.01,2
2031.05,3
2030.08,1
2029.12,0
2028.15,-1
2027.19,-2
2026.23,1
2025.26,4
2024.30,3
2023.33,2
2022.37,-0
2021.40,-4
2020.44,-8
2019.48,-15
2018.51,-25
2017.55,-30
2016.58,-25
2015.62,-15
2014.65,-11
2013.69,-11
2012.73,-7
2011.76,-0
2010.80,9
2009.83,15
2008.87,16
2007.90,19
2006.94,20
2005.98,10
2005.01,-6
2004.05,-20
2003.08,-29
2002.12,-27
2001.15,-18
2000.19,-10
1999.23,-13
1998.26,-23
1997.30,-31
1996.33,-35
1995.37,-32
1994.41,-23
1993.44,-16
1992.48,-10
1991.51,-9
1990.55,-13
1989.58,-15
1988.62,-11
1987.66,-6
1986.69,-6
1985.73,-10
1984.76,-12
1983.80,-7
1982.83,1
1981.87,10
1980.91,13
1979.94,3
1978.98,-16
1978.01,-31
1977.05,-31
1976.08,-21
1975.12,-10
1974.16,-6
1973.19,-8
1972.23,-13
1971.26,-14
1970.30,-3
1969.34,14
1968.37,26
1967.41,27
1966.44,24
1965.48,18
1964.51,13
1963.55,14
1962.59,17
1961.62,16
1960.66,7
1959.69,-3
1958.73,-5
1957.76,1
1956.80,5
1955.84,10
1954.87,18
1953.91,21
1952.94,18
1951.98,12
1951.01,11
1950.05,12
1949.09,15
1948.12,17
1947.16,15
1946.19,8
1945.23,-2
1944.27,-8
1943.30,-6
1942.34,4
1941.37,19
1940.41,26
1939.44,21
1938.48,12
1937.52,7
1936.55,4
1935.59,0
1934.62,-2
1933.66,-4
1932.69,-7
1931.73,-2
1930.77,9
1929.80,13
1928.84,4
1927.87,-6
1926.91,-14
1925.94,-21
1924.98,-14
1924.02,-1
1923.05,6
1922.09,9
1921.12,9
1920.16,7
1919.20,5
1918.23,8
1917.27,13
1916.30,16
1915.34,11
1914.37,3
1913.41,-4
1912.45,-10
1911.48,-13
1910.52,-12
1909.55,-13
1908.59,-16
1907.62,-19
1906.66,-24
1905.70,-27
1904.73,-25
1903.77,-26
1902.80,-29
1901.84,-28
1900.87,-19
1899.91,-16
1898.95,-27
1897.98,-34
1897.02,-22
1896.05,-2
1895.09,7
1894.13,6
1893.16,-1
1892.20,-9
1891.23,-14
1890.27,-17
1889.30,-20
1888.34,-27
1887.38,-30
1886.41,-21
1885.45,-7
1884.48,2
1883.52,-2
1882.55,-14
1881.59,-24
1880.63,-24
1879.66,-17
1878.70,-10
1877.73,-9
1876.77,-15
1875.80,-22
1874.84,-22
1873.88,-13
1872.91,-4
1871.95,-0
1870.98,-4
1870.02,-15
1869.06,-20
1868.09,-11
1867.13,2
1866.16,11
1865.20,12
1864.23,4
1863.27,-1
1862.31,0
1861.34,-2
1860.38,-16
1859.41,-34
1858.45,-38
1857.48,-28
1856.52,-13
1855.56,2
1854.59,13
1853.63,18
1852.66,19
1851.70,13
1850.73,-3
1849.77,-12
1848.81,-9
1847.84,-6
1846.88,-6
1845.91,-5
1844.95,-5
1843.98,-2
1843.02,4
1842.06,12
1841.09,19
1840.13,13
1839.16,-8
1838.20,-31
1837.24,-35
1836.27,-20
1835.31,-6
1834.34,-3
1833.38,-9
1832.41,-15
1831.45,-20
1830.49,-25
1829.52,-27
1828.56,-22
1827.59,-13
1826.63,-5
1825.66,-1
1824.70,1
1823.74,6
1822.77,6
1821.81,-1
1820.84,-13
1819.88,-22
1818.91,-18
1817.95,-10
1816.99,-9
1816.02,-16
1815.06,-23
1814.09,-27
1813.13,-26
1812.17,-21
1811.20,-14
1810.24,-8
1809.27,-6
1808.31,-10
1807.34,-13
1806.38,-14
1805.42,-19
1804.45,-24
1803.49,-26
1802.52,-25
1801.56,-21
1800.59,-20
1799.63,-25
1798.67,-27
1797.70,-18
1796.74,-5
1795.77,0
1794.81,-6
1793.84,-14
1792.88,-20
1791.92,-18
1790.95,-4
1789.99,5
1789.02,-5
1788.06,-28
1787.10,-40
1786.13,-37
1785.17,-25
1784.20,-7
1783.24,13
1782.27,20
1781.31,12
1780.35,6
1779.38,5
1778.42,0
1777.45,-2
1776.49,1
1775.52,0
1774.56,-2
1773.60,-4
1772.63,-6
1771.67,-8
1770.70,-8
1769.74,0
1768.77,10
1767.81,15
1766.85,13
1765.88,7
1764.92,-4
1763.95,-12
1762.99,-2
1762.03,18
1761.06,24
1760.10,22
1759.13,15
1758.17,1
1757.20,-14
1756.24,-18
1755.28,-11
1754.31,-4
1753.35,-1
1752.38,2
1751.42,-1
1750.45,-8
1749.49,-12
1748.53,-7
1747.56,-0
1746.60,5
1745.63,2
1744.67,-8
1743.70,-16
1742.74,-18
1741.78,-18
1740.81,-20
1739.85,-24
1738.88,-25
1737.92,-27
1736.96,-32
1735.99,-36
1735.03,-32
1734.06,-21
1733.10,-12
1732.13,-11
1731.17,-17
1730.21,-20
1729.24,-13
1728.28,1
1727.31,14
1726.35,15
1725.38,-3
1724.42,-27
1723.46,-41
1722.49,-43
1721.53,-40
1720.56,-32
1719.60,-20
1718.63,-14
1717.67,-12
1716.71,-8
1715.74,-5
1714.78,-5
1713.81,-6
1712.85,-5
1711.89,-5
1710.92,-8
1709.96,-15
1708.99,-21
1708.03,-24
1707.06,-23
1706.10,-14
1705.14,0
1704.17,4
1703.21,-5
1702.24,-12
1701.28,-11
1700.31,-7
1699.35,-5
1698.39,-5
1697.42,-6
1696.46,-11
1695.49,-18
1694.53,-23
1693.56,-18
1692.60,-12
1691.64,-5
1690.67,2
1689.71,4
1688.74,3
1687.78,3
1686.81,6
1685.85,10
1684.89,8
1683.92,0
1682.96,-10
1681.99,-14
1681.03,-12
1680.07,-8
1679.10,-6
1678.14,-2
1677.17,8
1676.21,19
1675.24,33
1674.28,56
1673.32,64
1672.35,57
1671.39,51
1670.42,46
1669.46,33
1668.49,14
1667.53,9
1666.57,24
1665.60,49
1664.64,66
1663.67,67
1662.71,54
1661.74,32
1660.78,21
1659.82,27
1658.85,38
1657.89,48
1656.92,53
1655.96,50
1655.00,48
1654.03,49
1653.07,55
1652.10,64
1651.14,71
1650.17,78
1649.21,86
1648.25,95
1647.28,100
1646.32,99
1645.35,96
1644.39,95
1643.42,93
1642.46,92
1641.50,93
1640.53,93
1639.57,94
1638.60,100
1637.64,109
1636.67,116
1635.71,117
1634.75,113
1633.78,110
1632.82,112
1631.85,118
1630.89,122
1629.93,123
1628.96,120
1628.00,115
1627.03,114
1626.07,120
1625.10,124
1624.14,121
1623.18,121
1622.21,131
1621.25,140
1620.28,139
1619.32,129
1618.35,122
1617.39,128
1616.43,143
1615.46,149
1614.50,153
1613.53,158
1612.57,155
1611.60,151
1610.64,155
1609.68,157
1608.71,153
1607.75,153
1606.78,165
1605.82,182
1604.86,194
1603.89,199
1602.93,200
1601.96,199
1601.00,189
1600.03,170
1599.07,153
1598.11,146
1597.14,148
1596.18,158
1595.21,169
1594.25,172
1593.28,161
1592.32,144
1591.36,135
1590.39,141
1589.43,149
1588.46,148
1587.50,146
1586.53,155
1585.57,167
1584.61,170
1583.64,166
1582.68,162
1581.71,161
1580.75,155
1579.79,149
1578.82,152
1577.86,165
1576.89,177
1575.93,176
1574.96,162
1574.00,143
1573.04,131
1572.07,128
1571.11,133
1570.14,142
1569.18,147
1568.21,142
1567.25,132
1566.29,123
1565.32,117
1564.36,116
1563.39,120
1562.43,127
1561.46,130
1560.50,132
1559.54,138
1558.57,147
1557.61,147
1556.64,146
1555.68,148
1554.72,150
1553.75,149
1552.79,146
1551.82,140
1550.86,131
1549.89,124
1548.93,125
1547.97,128
1547.00,128
1546.04,123
1545.07,114
1544.11,104
1543.14,102
1542.18,105
1541.22,107
1540.25,107
1539.29,109
1538.32,105
1537.36,95
1536.39,89
1535.43,95
1534.47,103
1533.50,114
1532.54,129
1531.57,138
1530.61,136
1529.64,126
1528.68,115
1527.72,109
1526.75,110
1525.79,120
1524.82,131
1523.86,134
1522.90,126
1521.93,116
1520.97,107
1520.00,96
1519.04,91
1518.07,100
1517.11,115
1516.15,122
1515.18,114
1514.22,101
1513.25,98
1512.29,107
1511.32,114
1510.36,106
1509.40,88
1508.43,88
1507.47,105
1506.50,115
1505.54,116
1504.57,116
1503.61,112
1502.65,108
1501.68,109
1500.72,115
1499.75,116
1498.79,111
1497.83,103
1496.86,105
1495.90,122
1494.93,141
1493.97,143
1493.00,134
1492.04,124
1491.08,121
1490.11,126
1489.15,133
1488.18,131
1487.22,121
1486.25,119
1485.29,129
1484.33,140
1483.36,141
1482.40,141
1481.43,145
1480.47,152
1479.50,161
1478.54,169
1477.58,175
1476.61,178
1475.65,178
1474.68,175
1473.72,170
1472.76,168
1471.79,168
1470.83,171
1469.86,182
1468.90,201
1467.93,218
1466.97,229
1466.01,236
1465.04,242
1464.08,247
1463.11,253
1462.15,265
1461.18,276
1460.22,281
1459.26,294
1458.29,322
1457.33,345
1456.36,358
1455.40,364
1454.43,364
1453.47,354
1452.51,340
1451.54,331
1450.58,334
1449.61,346
1448.65,359
1447.69,364
1446.72,357
1445.76,344
1444.79,340
1443.83,344
1442.86,353
1441.90,366
1440.94,377
1439.97,374
1439.01,352
1438.04,326
1437.08,310
1436.11,301
1435.15,294
1434.19,286
1433.22,275
1432.26,261
1431.29,244
1430.33,220
1429.36,196
1428.40,181
1427.44,178
1426.47,183
1425.51,192
1424.54,190
1423.58,174
1422.62,156
1421.65,147
1420.69,148
1419.72,152
1418.76,157
1417.79,159
1416.83,157
1415.87,150
1414.90,144
1413.94,139
1412.97,140
1412.01,146
1411.04,150
1410.08,150
1409.12,145
1408.15,137
1407.19,126
1406.22,122
1405.26,132
1404.29,149
1403.33,154
1402.37,145
1401.40,133
1400.44,128
1399.47,136
1398.51,150
1397.55,159
1396.58,158
1395.62,152
1394.65,152
1393.69,157
1392.72,168
1391.76,175
1390.80,167
1389.83,155
1388.87,149
1387.90,150
1386.94,150
1385.97,141
1385.01,129
1384.05,132
1383.08,153
1382.12,175
1381.15,193
1380.19,201
1379.22,197
1378.26,189
1377.30,186
1376.33,190
1375.37,196
1374.40,201
1373.44,201
1372.47,197
1371.51,197
1370.55,206
1369.58,213
1368.62,211
1367.65,210
1366.69,210
1365.73,209
1364.76,203
1363.80,201
1362.83,200
1361.87,206
1360.90,222
1359.94,238
1358.98,245
1358.01,239
1357.05,229
1356.08,223
1355.12,223
1354.15,228
1353.19,233
1352.23,234
1351.26,222
1350.30,203
1349.33,183
1348.37,181
1347.40,193
1346.44,207
1345.48,212
1344.51,209
1343.55,208
1342.58,208
1341.62,208
1340.66,206
1339.69,207
1338.73,212
1337.76,213
1336.80,207
1335.83,195
1334.87,185
1333.91,182
1332.94,183
1331.98,186
1331.01,194
1330.05,203
1329.08,210
1328.12,212
1327.16,209
1326.19,203
1325.23,199
1324.26,199
1323.30,203
1322.33,208
1321.37,212
1320.41,212
1319.44,207
1318.48,203
1317.51,202
1316.55,203
1315.59,208
1314.62,218
1313.66,229
1312.69,231
1311.73,226
1310.76,221
1309.80,216
1308.84,214
1307.87,215
1306.91,219
1305.94,224
1304.98,236
1304.01,251
1303.05,257
1302.09,246
1301.12,228
1300.16,221
1299.19,229
1298.23,234
1297.26,228
1296.30,216
1295.34,209
1294.37,208
1293.41,204
1292.44,185
1291.48,166
1290.52,164
1289.55,172
1288.59,175
1287.62,175
1286.66,180
1285.69,185
1284.73,178
1283.77,156
1282.80,133
1281.84,115
1280.87,112
1279.91,121
1278.94,133
1277.98,139
1277.02,140
1276.05,137
1275.09,129
1274.12,118
1273.16,112
1272.19,115
1271.23,121
1270.27,122
1269.30,115
1268.34,107
1267.37,103
1266.41,101
1265.45,93
1264.48,86
1263.52,97
1262.55,109
1261.59,110
1260.62,100
1259.66,89
1258.70,86
1257.73,91
1256.77,99
1255.80,102
1254.84,95
1253.87,83
1252.91,69
1251.95,52
1250.98,39
1250.02,32
1249.05,32
1248.09,37
1247.12,42
1246.16,44
1245.20,47
1244.23,52
1243.27,56
1242.30,56
1241.34,51
1240.38,45
1239.41,42
1238.45,39
1237.48,35
1236.52,36
1235.55,45
1234.59,49
1233.63,45
1232.66,37
1231.70,25
1230.73,12
1229.77,0
1228.80,-8
1227.84,-10
1226.88,-5
1225.91,6
1224.95,17
1223.98,23
1223.02,22
1222.05,19
1221.09,20
1220.13,27
1219.16,33
1218.20,29
1217.23,19
1216.27,11
1215.30,8
1214.34,8
1213.38,9
1212.41,5
1211.45,-4
1210.48,-13
1209.52,-10
1208.56,2
1207.59,10
1206.63,9
1205.66,12
1204.70,23
1203.73,40
1202.77,52
1201.81,60
1200.84,62
1199.88,55
1198.91,43
1197.95,36
1196.98,35
1196.02,34
1195.06,28
1194.09,19
1193.13,13
1192.16,5
1191.20,-3
1190.23,-5
1189.27,-2
1188.31,0
1187.34,3
1186.38,7
1185.41,12
1184.45,11
1183.49,5
1182.52,-0
1181.56,-6
1180.59,-7
1179.63,-0
1178.66,11
1177.70,17
1176.74,10
1175.77,-0
1174.81,1
1173.84,6
1172.88,3
1171.91,-1
1170.95,-5
1169.99,-11
1169.02,-19
1168.06,-19
1167.09,-13
1166.13,-3
1165.16,8
1164.20,19
1163.24,25
1162.27,27
1161.31,27
1160.34,27
1159.38,28
1158.42,28
1157.45,28
1156.49,32
1155.52,41
1154.56,48
1153.59,47
1152.63,39
1151.67,25
1150.70,7
1149.74,-2
1148.77,1
1147.81,10
1146.84,19
1145.88,28
1144.92,37
1143.95,44
1142.99,45
1142.02,40
1141.06,36
1140.09,36
1139.13,33
1138.17,23
1137.20,11
1136.24,2
1135.27,-2
1134.31,-1
1133.35,3
1132.38,5
1131.42,3
1130.45,4
1129.49,10
1128.52,21
1127.56,30
1126.60,28
1125.63,13
1124.67,0
1123.70,-0
1122.74,4
1121.77,7
1120.81,9
1119.85,8
1118.88,2
1117.92,-3
1116.95,-2
1115.99,2
1115.02,1
1114.06,-1
1113.10,-1
1112.13,1
1111.17,3
1110.20,6
1109.24,12
1108.28,24
1107.31,33
1106.35,36
1105.38,31
1104.42,15
1103.45,-5
1102.49,-19
1101.53,-21
1100.56,-24
1099.60,-23
1098.63,-11
1097.67,3
1096.70,12
1095.74,11
1094.78,3
1093.81,-8
1092.85,-15
1091.88,-5
1090.92,18
1089.95,41
1088.99,57
1088.03,66
1087.06,72
1086.10,79
1085.13,86
1084.17,73
1083.21,48
1082.24,31
1081.28,26
1080.31,22
1079.35,12
1078.38,-3
1077.42,-14
1076.46,-13
1075.49,-7
1074.53,0
1073.56,3
1072.60,2
1071.63,-3
1070.67,-10
1069.71,-18
1068.74,-22
1067.78,-17
1066.81,-8
1065.85,5
1064.88,17
1063.92,22
1062.96,16
1061.99,3
1061.03,-13
1060.06,-25
1059.10,-28
1058.13,-24
1057.17,-13
1056.21,1
1055.24,14
1054.28,17
1053.31,11
1052.35,9
1051.39,12
1050.42,12
1049.46,7
1048.49,-4
1047.53,-17
1046.56,-25
1045.60,-22
1044.64,-13
1043.67,-1
1042.71,7
1041.74,7
1040.78,1
1039.81,0
1038.85,12
1037.89,24
1036.92,23
1035.96,18
1034.99,14
1034.03,10
1033.06,1
1032.10,-11
1031.14,-19
1030.17,-18
1029.21,-13
1028.24,-4
1027.28,6
1026.32,11
1025.35,7
1024.39,-3
1023.42,-11
1022.46,-8
1021.49,-2
1020.53,6
1019.57,11
1018.60,9
1017.64,-0
1016.67,-11
1015.71,-14
1014.74,-13
1013.78,-11
1012.82,-13
1011.85,-19
1010.89,-24
1009.92,-25
1008.96,-20
1007.99,-12
1007.03,-3
1006.07,8
1005.10,16
1004.14,21
1003.17,23
1002.21,28
1001.25,39
1000.28,49
999.32,46
998.35,39
997.39,28
996.42,17
995.46,11
994.50,19
993.53,36
992.57,38
991.60,18
990.64,-1
989.67,0
988.71,17
987.75,33
986.78,29
985.82,16
984.85,19
983.89,28
982.92,28
981.96,18
981.00,6
980.03,1
979.07,2
978.10,7
977.14,13
976.18,17
975.21,16
974.25,11
973.28,5
972.32,-1
971.35,0
970.39,22
969.43,51
968.46,64
967.50,55
966.53,29
965.57,-0
964.60,-21
963.64,-19
962.68,2
961.71,28
960.75,40
959.78,38
958.82,25
957.85,10
956.89,-1
955.93,-6
954.96,-9
954.00,-13
953.03,-15
952.07,-14
951.11,-9
950.14,-1
949.18,2
948.21,-3
947.25,-4
946.28,1
945.32,4
944.36,-3
943.39,-20
942.43,-37
941.46,-42
940.50,-35
939.53,-20
938.57,-5
937.61,2
936.64,-6
935.68,-23
934.71,-29
933.75,-24
932.78,-11
931.82,8
930.86,24
929.89,29
928.93,23
927.96,17
927.00,12
926.04,7
925.07,0
924.11,-4
923.14,0
922.18,15
921.21,31
920.25,33
919.29,25
918.32,11
917.36,-9
916.39,-24
915.43,-21
914.46,-2
913.50,5
912.54,-1
911.57,-6
910.61,-5
909.64,0
908.68,1
907.71,-4
906.75,-6
905.79,-4
904.82,-3
903.86,-4
902.89,-2
901.93,8
900.96,28
900.00,38
899.04,36
898.07,26
897.11,12
896.14,1
895.18,-0
894.22,6
893.25,16
892.29,26
891.32,37
890.36,46
889.39,53
888.43,55
887.47,47
886.50,28
885.54,11
884.57,0
883.61,3
882.64,8
881.68,8
880.72,-1
879.75,-20
878.79,-38
877.82,-46
876.86,-44
875.89,-35
874.93,-24
873.97,-16
873.00,-17
872.04,-19
871.07,-14
870.11,-5
869.15,2
868.18,3
867.22,4
866.25,5
865.29,-1
864.32,-0
863.36,10
862.40,23
861.43,31
860.47,31
859.50,25
858.54,8
857.57,-13
856.61,-29
855.65,-34
854.68,-30
853.72,-18
852.75,-4
851.79,4
850.82,9
849.86,16
848.90,24
847.93,29
846.97,30
846.00,32
845.04,28
844.08,25
843.11,29
842.15,39
841.18,51
840.22,61
839.25,70
838.29,76
837.33,74
836.36,54
835.40,22
834.43,-0
833.47,21
832.50,55
831.54,55
830.58,49
829.61,48
828.65,48
827.68,40
826.72,29
825.75,17
824.79,5
823.83,-4
822.86,-7
821.90,-4
820.93,1
819.97,1
819.01,-4
818.04,-12
817.08,-22
816.11,-31
815.15,-32
814.18,-19
813.22,0
812.26,3
811.29,-5
810.33,-13
809.36,-17
808.40,-19
807.43,-20
806.47,-20
805.51,-19
804.54,-21
803.58,-23
802.61,-19
801.65,-9
800.68,6
799.72,15
798.76,17
797.79,12
796.83,-3
795.86,-22
794.90,-37
793.94,-41
792.97,-30
792.01,-17
791.04,-10
790.08,-9
789.11,-13
788.15,-18
787.19,-20
786.22,-13
785.26,-0
784.29,11
783.33,15
782.36,12
781.40,14
780.44,30
779.47,36
778.51,28
777.54,13
776.58,4
775.61,5
774.65,5
773.69,9
772.72,12
771.76,11
770.79,9
769.83,11
768.87,22
767.90,32
766.94,38
765.97,43
765.01,47
764.04,52
763.08,56
762.12,53
761.15,39
760.19,29
759.22,27
758.26,29
757.29,27
756.33,15
755.37,-3
754.40,-9
753.44,-1
752.47,8
751.51,11
750.54,6
749.58,0
748.62,1
747.65,5
746.69,8
745.72,5
744.76,-1
743.79,-5
742.83,-11
741.87,-24
740.90,-31
739.94,-28
738.97,-15
738.01,-3
737.05,3
736.08,5
735.12,6
734.15,9
733.19,13
732.22,14
731.26,6
730.30,-6
729.33,-8
728.37,-1
727.40,10
726.44,17
725.47,12
724.51,-1
723.55,-16
722.58,-27
721.62,-34
720.65,-36
719.69,-36
718.72,-38
717.76,-35
716.80,-27
715.83,-19
714.87,-19
713.90,-28
712.94,-41
711.98,-46
711.01,-47
710.05,-46
709.08,-42
708.12,-31
707.15,-14
706.19,-1
705.23,1
704.26,-0
703.30,-3
702.33,-6
701.37,-8
700.40,-9
699.44,-14
698.48,-20
697.51,-23
696.55,-21
695.58,-13
694.62,-2
693.65,9
692.69,13
691.73,14
690.76,13
689.80,11
688.83,-1
687.87,-1
686.91,92
685.94,111
684.98,-10
684.01,-142
683.05,-77
682.08,116
681.12,106
680.16,24
679.19,-24
678.23,-14
677.26,18
676.30,28
675.33,31
674.37,30
673.41,20
672.44,7
671.48,0
670.51,-0
669.55,-5
668.58,-13
667.62,-19
666.66,-22
665.69,-20
664.73,-14
663.76,-3
662.80,4
661.84,5
660.87,3
659.91,0
658.94,-1
657.98,-2
657.01,-6
656.05,-14
655.09,-21
654.12,-22
653.16,-13
652.19,-1
651.23,3
650.26,-1
649.30,-10
648.34,-17
647.37,-21
646.41,-20
645.44,-14
644.48,-3
643.51,11
642.55,21
641.59,19
640.62,3
639.66,-18
638.69,-31
637.73,-31
636.77,-21
635.80,-4
634.84,14
633.87,17
632.91,12
631.94,11
630.98,18
630.02,24
629.05,17
628.09,5
627.12,4
626.16,8
625.19,11
624.23,8
623.27,-4
622.30,-17
621.34,-23
620.37,-24
619.41,-24
618.44,-25
617.48,-25
616.52,-16
615.55,-4
614.59,5
613.62,8
612.66,4
611.70,-2
610.73,-8
609.77,-13
608.80,-18
607.84,-21
606.87,-17
605.91,-9
604.95,1
603.98,8
603.02,12
602.05,12
601.09,9
600.12,6
599.16,3
598.20,0
597.23,-2
596.27,-5
595.30,-8
594.34,-13
593.37,-14
592.41,-9
591.45,-1
590.48,6
589.52,7
588.55,1
587.59,-8
586.62,-12
585.66,-13
584.70,-13
583.73,-13
582.77,-10
581.80,-2
580.84,3
579.88,2
578.91,-1
577.95,-3
576.98,-4
576.02,4
575.05,16
574.09,27
573.13,29
572.16,21
571.20,6
570.23,-8
569.27,-17
568.30,-22
567.34,-23
566.38,-20
565.41,-13
564.45,-6
563.48,1
562.52,9
561.55,18
560.59,21
559.63,1
558.66,-24
557.70,-34
556.73,-29
555.77,-17
554.81,-6
553.84,-8
552.88,-13
551.91,-20
550.95,-23
549.98,-18
549.02,-2
548.06,13
547.09,16
546.13,10
545.16,-1
544.20,-14
543.23,-21
542.27,-13
541.31,-0
540.34,4
539.38,-3
538.41,-20
537.45,-36
536.48,-47
535.52,-47
534.56,-36
533.59,-19
532.63,-4
531.66,-0
530.70,-2
529.74,-6
528.77,-9
527.81,-11
526.84,-12
525.88,-11
524.91,-6
523.95,1
522.99,5
522.02,1
521.06,-5
520.09,2
519.13,11
518.16,14
517.20,8
516.24,-5
515.27,-15
514.31,-12
513.34,0
512.38,12
511.41,19
510.45,16
509.49,9
508.52,4
507.56,7
506.59,17
505.63,32
504.67,39
503.70,36
502.74,34
501.77,35
500.81,38
499.84,38
498.88,34
497.92,24
496.95,11
495.99,1
495.02,-2
494.06,5
493.09,11
492.13,12
491.17,11
490.20,10
489.24,13
488.27,21
487.31,30
486.34,36
485.38,40
484.42,42
483.45,41
482.49,36
481.52,33
480.56,33
479.60,34
478.63,34
477.67,33
476.70,29
475.74,22
474.77,12
473.81,2
472.85,-5
471.88,-5
470.92,-0
469.95,3
468.99,4
468.02,3
467.06,1
466.10,-3
465.13,-3
464.17,1
463.20,7
462.24,12
461.27,13
460.31,11
459.35,8
458.38,7
457.42,10
456.45,19
455.49,31
454.53,37
453.56,37
452.60,32
451.63,26
450.67,25
449.70,23
448.74,23
447.78,26
446.81,33
445.85,37
444.88,37
443.92,38
442.95,37
441.99,33
441.03,26
440.06,16
439.10,4
438.13,-5
437.17,-5
436.20,1
435.24,11
434.28,6
433.31,-5
432.35,-11
431.38,-10
430.42,-3
429.45,-0
428.49,2
427.53,5
426.56,6
425.60,2
424.63,-5
423.67,-6
422.71,-5
421.74,-6
420.78,-7
419.81,-4
418.85,6
417.88,13
416.92,15
415.96,13
414.99,9
414.03,3
413.06,-3
412.10,-11
411.13,-18
410.17,-21
409.21,-14
408.24,-4
407.28,0
406.31,1
405.35,2
404.38,4
403.42,9
402.46,16
401.49,20
400.53,20
399.56,15
398.60,4
397.64,-8
396.67,-14
395.71,-11
394.74,-3
393.78,4
392.81,8
391.85,15
390.89,15
389.92,8
388.96,-3
387.99,-9
387.03,-3
386.06,7
385.10,18
384.14,25
383.17,25
382.21,24
381.24,25
380.28,24
379.31,17
378.35,3
377.39,-13
376.42,-16
375.46,-12
374.49,-6
373.53,-2
372.57,-3
371.60,-6
370.64,-9
369.67,-11
368.71,-12
367.74,-14
366.78,-13
365.82,-9
364.85,-4
363.89,2
362.92,6
361.96,8
360.99,6
360.03,1
359.07,-8
358.10,-15
357.14,-13
356.17,1
355.21,19
354.24,37
353.28,49
352.32,48
351.35,27
350.39,4
349.42,-11
348.46,-17
347.50,-13
346.53,-1
345.57,12
344.60,21
343.64,25
342.67,26
341.71,22
340.75,16
339.78,10
338.82,6
337.85,5
336.89,6
335.92,4
334.96,0
334.00,-4
333.03,-4
332.07,-3
331.10,-6
330.14,-9
329.17,-11
328.21,-9
327.25,-5
326.28,5
325.32,17
324.35,25
323.39,29
322.43,28
321.46,28
320.50,27
319.53,23
318.57,14
317.60,4
316.64,-3
315.68,-5
314.71,-3
313.75,2
312.78,9
311.82,15
310.85,22
309.89,28
308.93,28
307.96,19
307.00,1
306.03,-19
305.07,-34
304.10,-36
303.14,-25
302.18,-2
301.21,14
300.25,19
299.28,16
298.32,7
297.36,-3
296.39,-7
295.43,-0
294.46,10
293.50,18
292.53,22
291.57,21
290.61,16
289.64,11
288.68,6
287.71,7
286.75,13
285.78,21
284.82,28
283.86,34
282.89,38
281.93,42
280.96,45
280.00,46
279.03,44
278.07,38
277.11,29
276.14,20
275.18,13
274.21,6
273.25,2
272.28,7
271.32,16
270.36,22
269.39,26
268.43,28
267.46,26
266.50,20
265.54,14
264.57,9
263.61,6
262.64,2
261.68,-3
260.71,-4
259.75,0
258.79,12
257.82,22
256.86,21
255.89,16
254.93,9
253.96,2
253.00,-6
252.04,-4
251.07,-1
250.11,3
249.14,5
248.18,9
247.21,8
246.25,2
245.29,-7
244.32,-16
243.36,-19
242.39,-20
241.43,-19
240.47,-18
239.50,-16
238.54,-17
237.57,-23
236.61,-26
235.64,-25
234.68,-21
233.72,-14
232.75,-6
231.79,5
230.82,18
229.86,31
228.89,39
227.93,43
226.97,47
226.00,48
225.04,46
224.07,39
223.11,22
222.14,2
221.18,-15
220.22,-26
219.25,-33
218.29,-31
217.32,-22
216.36,-14
215.40,-14
214.43,-25
213.47,-35
212.50,-37
211.54,-32
210.57,-22
209.61,-10
208.65,0
207.68,5
206.72,1
205.75,-11
204.79,-26
203.82,-28
202.86,-20
201.90,-6
200.93,5
199.97,2
199.00,-6
198.04,-10
197.07,-8
196.11,-1
195.15,0
194.18,-3
193.22,-5
192.25,-4
191.29,-0
190.33,3
189.36,2
188.40,-0
187.43,-2
186.47,-1
185.50,4
184.54,7
183.58,6
182.61,3
181.65,-3
180.68,-10
179.72,-19
178.75,-28
177.79,-31
176.83,-24
175.86,-13
174.90,-6
173.93,-2
172.97,-0
172.00,3
171.04,6
170.08,4
169.11,-1
168.15,-8
167.18,-15
166.22,-21
165.26,-23
164.29,-20
163.33,-12
162.36,-4
161.40,1
160.43,5
159.47,11
158.51,17
157.54,23
156.58,27
155.61,28
154.65,27
153.68,21
152.72,12
151.76,3
150.79,-5
149.83,-12
148.86,-14
147.90,-10
146.93,-7
145.97,-8
145.01,-14
144.04,-21
143.08,-20
142.11,-16
141.15,-11
140.19,-10
139.22,-8
138.26,-5
137.29,-2
136.33,2
135.36,6
134.40,5
133.44,-8
132.47,-23
131.51,-34
130.54,-36
129.58,-27
128.61,-15
127.65,-5
126.69,-0
125.72,-2
124.76,-7
123.79,-10
122.83,-11
121.86,-8
120.90,1
119.94,14
118.97,25
118.01,34
117.04,39
116.08,37
115.11,33
114.15,32
113.19,33
112.22,37
111.26,42
110.29,54
109.33,71
108.37,91
107.40,109
106.44,113
105.47,113
104.51,113
103.54,117
102.58,124
101.62,132
100.65,142
99.69,152
98.72,159
97.76,163
96.79,168
95.83,176
94.87,186
93.90,200
92.94,218
91.97,235
91.01,250
90.04,264
89.08,278
88.12,292
87.15,304
86.19,316
85.22,329
84.26,344
83.30,361
82.33,377
81.37,392
80.40,400
79.44,402
78.47,412
77.51,427
76.55,446
