Created As Omnic File,PLAS 72
Raman Shift / cm-1,INT
3418.58,-33
3417.61,-26
3416.65,-26
3415.68,-29
3414.72,-23
3413.76,-17
3412.79,-22
3411.83,-29
3410.86,-31
3409.90,-30
3408.94,-26
3407.97,-19
3407.01,-15
3406.04,-18
3405.08,-21
3404.11,-13
3403.15,-1
3402.19,0
3401.22,-7
3400.26,-12
3399.29,-13
3398.33,-19
3397.36,-20
3396.40,-13
3395.44,-9
3394.47,-7
3393.51,-5
3392.54,-3
3391.58,-3
3390.61,-5
3389.65,-6
3388.69,-11
3387.72,-12
3386.76,-8
3385.79,-4
3384.83,-1
3383.87,-3
3382.90,-5
3381.94,-5
3380.97,-5
3380.01,-5
3379.04,-10
3378.08,-15
3377.12,-15
3376.15,-11
3375.19,-1
3374.22,7
3373.26,9
3372.29,4
3371.33,-6
3370.37,-14
3369.40,-17
3368.44,-12
3367.47,-4
3366.51,-6
3365.54,-19
3364.58,-17
3363.62,-10
3362.65,-7
3361.69,-6
3360.72,-6
3359.76,-7
3358.80,-8
3357.83,-8
3356.87,-7
3355.90,-8
3354.94,-11
3353.97,-15
3353.01,-17
3352.05,-16
3351.08,-9
3350.12,-4
3349.15,-3
3348.19,-1
3347.22,4
3346.26,6
3345.30,6
3344.33,1
3343.37,-5
3342.40,-2
3341.44,0
3340.47,-3
3339.51,-5
3338.55,-4
3337.58,-4
3336.62,-2
3335.65,-1
3334.69,0
3333.73,3
3332.76,6
3331.80,4
3330.83,-0
3329.87,-3
3328.90,-8
3327.94,-16
3326.98,-17
3326.01,-15
3325.05,-10
3324.08,-4
3323.12,-5
3322.15,-10
3321.19,-10
3320.23,-6
3319.26,-2
3318.30,3
3317.33,6
3316.37,5
3315.40,0
3314.44,-6
3313.48,-10
3312.51,-13
3311.55,-14
3310.58,-12
3309.62,-4
3308.66,3
3307.69,3
3306.73,1
3305.76,-1
3304.80,-3
3303.83,-5
3302.87,-6
3301.91,-6
3300.94,-6
3299.98,-2
3299.01,4
3298.05,9
3297.08,8
3296.12,2
3295.16,-4
3294.19,-0
3293.23,11
3292.26,19
3291.30,15
3290.33,4
3289.37,-6
3288.41,-6
3287.44,-1
3286.48,-5
3285.51,-11
3284.55,-7
3283.59,1
3282.62,2
3281.66,-2
3280.69,-2
3279.73,1
3278.76,6
3277.80,6
3276.84,0
3275.87,-6
3274.91,-8
3273.94,-7
3272.98,-6
3272.01,-8
3271.05,-10
3270.09,-10
3269.12,-11
3268.16,-13
3267.19,-15
3266.23,-8
3265.26,1
3264.30,-0
3263.34,-6
3262.37,-11
3261.41,-11
3260.44,-6
3259.48,-1
3258.51,-1
3257.55,-2
3256.59,-1
3255.62,0
3254.66,2
3253.69,-0
3252.73,-5
3251.77,-4
3250.80,-0
3249.84,-2
3248.87,-6
3247.91,-5
3246.94,-1
3245.98,-3
3245.02,-5
3244.05,2
3243.09,6
3242.12,-1
3241.16,-7
3240.19,-7
3239.23,-1
3238.27,9
3237.30,17
3236.34,17
3235.37,13
3234.41,8
3233.44,6
3232.48,8
3231.52,17
3230.55,25
3229.59,24
3228.62,19
3227.66,23
3226.70,28
3225.73,20
3224.77,15
3223.80,21
3222.84,24
3221.87,21
3220.91,19
3219.95,21
3218.98,23
3218.02,24
3217.05,23
3216.09,24
3215.12,27
3214.16,28
3213.20,24
3212.23,15
3211.27,13
3210.30,12
3209.34,9
3208.37,7
3207.41,5
3206.45,4
3205.48,7
3204.52,7
3203.55,-1
3202.59,-3
3201.63,5
3200.66,11
3199.70,10
3198.73,5
3197.77,-2
3196.80,-5
3195.84,-2
3194.88,4
3193.91,6
3192.95,3
3191.98,-4
3191.02,-3
3190.05,5
3189.09,6
3188.13,5
3187.16,1
3186.20,-1
3185.23,5
3184.27,9
3183.30,5
3182.34,0
3181.38,-2
3180.41,-2
3179.45,-2
3178.48,-3
3177.52,-3
3176.56,-0
3175.59,3
3174.63,3
3173.66,1
3172.70,-3
3171.73,-4
3170.77,3
3169.81,9
3168.84,9
3167.88,5
3166.91,-1
3165.95,-4
3164.98,-9
3164.02,-14
3163.06,-12
3162.09,-5
3161.13,4
3160.16,8
3159.20,1
3158.23,-8
3157.27,-8
3156.31,-4
3155.34,-3
3154.38,1
3153.41,1
3152.45,-6
3151.49,-11
3150.52,-7
3149.56,1
3148.59,3
3147.63,-1
3146.66,2
3145.70,10
3144.74,7
3143.77,-1
3142.81,-2
3141.84,1
3140.88,3
3139.91,4
3138.95,1
3137.99,0
3137.02,-0
3136.06,-3
3135.09,-6
3134.13,-8
3133.16,-4
3132.20,0
3131.24,-0
3130.27,-2
3129.31,-2
3128.34,-3
3127.38,-7
3126.42,-13
3125.45,-14
3124.49,-6
3123.52,6
3122.56,9
3121.59,4
3120.63,-5
3119.67,-8
3118.70,-5
3117.74,-2
3116.77,0
3115.81,0
3114.84,-4
3113.88,-8
3112.92,-6
3111.95,0
3110.99,11
3110.02,19
3109.06,21
3108.09,22
3107.13,20
3106.17,15
3105.20,14
3104.24,21
3103.27,35
3102.31,47
3101.34,51
3100.38,52
3099.42,54
3098.45,54
3097.49,52
3096.52,61
3095.56,75
3094.60,82
3093.63,86
3092.67,100
3091.70,123
3090.74,142
3089.77,160
3088.81,187
3087.85,219
3086.88,258
3085.92,299
3084.95,333
3083.99,371
3083.02,416
3082.06,454
3081.10,476
3080.13,483
3079.17,473
3078.20,452
3077.24,428
3076.27,402
3075.31,373
3074.35,345
3073.38,315
3072.42,293
3071.45,284
3070.49,278
3069.53,267
3068.56,260
3067.60,256
3066.63,250
3065.67,241
3064.70,222
3063.74,196
3062.78,175
3061.81,158
3060.85,143
3059.88,131
3058.92,123
3057.95,117
3056.99,106
3056.03,91
3055.06,80
3054.10,75
3053.13,75
3052.17,76
3051.20,73
3050.24,67
3049.28,65
3048.31,61
3047.35,53
3046.38,52
3045.42,58
3044.46,62
3043.49,63
3042.53,60
3041.56,57
3040.60,59
3039.63,62
3038.67,65
3037.71,71
3036.74,74
3035.78,71
3034.81,67
3033.85,64
3032.88,67
3031.92,79
3030.96,92
3029.99,98
3029.03,91
3028.06,84
3027.10,91
3026.13,104
3025.17,108
3024.21,105
3023.24,110
3022.28,119
3021.31,123
3020.35,119
3019.39,120
3018.42,131
3017.46,141
3016.49,150
3015.53,162
3014.56,171
3013.60,175
3012.64,179
3011.67,186
3010.71,191
3009.74,193
3008.78,198
3007.81,211
3006.85,226
3005.89,240
3004.92,254
3003.96,264
3002.99,274
3002.03,285
3001.06,297
3000.10,308
2999.14,319
2998.17,328
2997.21,336
2996.24,344
2995.28,359
2994.32,383
2993.35,406
2992.39,423
2991.42,437
2990.46,456
2989.49,485
2988.53,519
2987.57,550
2986.60,574
2985.64,596
2984.67,623
2983.71,655
2982.74,690
2981.78,717
2980.82,743
2979.85,779
2978.89,822
2977.92,862
2976.96,900
2975.99,940
2975.03,981
2974.07,1013
2973.10,1041
2972.14,1075
2971.17,1105
2970.21,1128
2969.25,1153
2968.28,1180
2967.32,1211
2966.35,1245
2965.39,1272
2964.42,1288
2963.46,1300
2962.50,1307
2961.53,1315
2960.57,1328
2959.60,1340
2958.64,1353
2957.67,1366
2956.71,1378
2955.75,1392
2954.78,1403
2953.82,1416
2952.85,1439
2951.89,1472
2950.92,1509
2949.96,1549
2949.00,1589
2948.03,1630
2947.07,1675
2946.10,1731
2945.14,1798
2944.17,1863
2943.21,1929
2942.25,2001
2941.28,2074
2940.32,2138
2939.35,2190
2938.39,2229
2937.43,2253
2936.46,2262
2935.50,2254
2934.53,2236
2933.57,2213
2932.60,2194
2931.64,2173
2930.68,2139
2929.71,2097
2928.75,2069
2927.78,2059
2926.82,2053
2925.85,2045
2924.89,2043
2923.93,2051
2922.96,2071
2922.00,2101
2921.03,2133
2920.07,2164
2919.10,2202
2918.14,2247
2917.18,2287
2916.21,2313
2915.25,2313
2914.28,2296
2913.32,2284
2912.36,2273
2911.39,2250
2910.43,2215
2909.46,2170
2908.50,2124
2907.53,2082
2906.57,2037
2905.61,1983
2904.64,1923
2903.68,1866
2902.71,1821
2901.75,1790
2900.78,1754
2899.82,1697
2898.86,1641
2897.89,1600
2896.93,1568
2895.96,1532
2895.00,1493
2894.03,1462
2893.07,1437
2892.11,1410
2891.14,1388
2890.18,1372
2889.21,1353
2888.25,1333
2887.29,1321
2886.32,1325
2885.36,1340
2884.39,1356
2883.43,1364
2882.46,1373
2881.50,1391
2880.54,1415
2879.57,1447
2878.61,1477
2877.64,1493
2876.68,1497
2875.71,1501
2874.75,1504
2873.79,1496
2872.82,1466
2871.86,1426
2870.89,1392
2869.93,1361
2868.96,1339
2868.00,1330
2867.04,1334
2866.07,1340
2865.11,1340
2864.14,1340
2863.18,1344
2862.22,1336
2861.25,1306
2860.29,1268
2859.32,1236
2858.36,1204
2857.39,1165
2856.43,1117
2855.47,1063
2854.50,1009
2853.54,951
2852.57,886
2851.61,817
2850.64,749
2849.68,687
2848.72,630
2847.75,571
2846.79,516
2845.82,471
2844.86,433
2843.89,395
2842.93,360
2841.97,330
2841.00,301
2840.04,270
2839.07,243
2838.11,219
2837.15,192
2836.18,164
2835.22,145
2834.25,136
2833.29,125
2832.32,110
2831.36,101
2830.40,99
2829.43,93
2828.47,84
2827.50,79
2826.54,82
2825.57,79
2824.61,65
2823.65,55
2822.68,62
2821.72,75
2820.75,83
2819.79,81
2818.82,67
2817.86,53
2816.90,47
2815.93,41
2814.97,33
2814.00,32
2813.04,31
2812.08,24
2811.11,17
2810.15,16
2809.18,19
2808.22,18
2807.25,7
2806.29,-5
2805.33,-7
2804.36,-9
2803.40,-12
2802.43,-15
2801.47,-15
2800.50,-14
2799.54,-14
2798.58,-14
2797.61,-14
2796.65,-15
2795.68,-13
2794.72,-13
2793.75,-19
2792.79,-21
2791.83,-16
2790.86,-13
2789.90,-14
2788.93,-16
2787.97,-16
2787.00,-12
2786.04,-4
2785.08,2
2784.11,3
2783.15,-2
2782.18,-10
2781.22,-16
2780.26,-17
2779.29,-13
2778.33,-7
2777.36,-1
2776.40,2
2775.43,-3
2774.47,-13
2773.51,-14
2772.54,-1
2771.58,7
2770.61,0
2769.65,-9
2768.68,-7
2767.72,-0
2766.76,-1
2765.79,-5
2764.83,-7
2763.86,-3
2762.90,12
2761.93,27
2760.97,29
2760.01,27
2759.04,31
2758.08,33
2757.11,31
2756.15,28
2755.19,32
2754.22,39
2753.26,45
2752.29,50
2751.33,53
2750.36,57
2749.40,68
2748.44,78
2747.47,80
2746.51,76
2745.54,68
2744.58,62
2743.61,65
2742.65,74
2741.69,88
2740.72,98
2739.76,101
2738.79,99
2737.83,97
2736.86,95
2735.90,90
2734.94,86
2733.97,90
2733.01,96
2732.04,91
2731.08,82
2730.12,77
2729.15,76
2728.19,78
2727.22,82
2726.26,86
2725.29,87
2724.33,80
2723.37,68
2722.40,66
2721.44,69
2720.47,60
2719.51,46
2718.54,48
2717.58,59
2716.62,70
2715.65,74
2714.69,69
2713.72,59
2712.76,52
2711.79,51
2710.83,48
2709.87,43
2708.90,43
2707.94,43
2706.97,41
2706.01,40
2705.05,35
2704.08,32
2703.12,36
2702.15,42
2701.19,43
2700.22,38
2699.26,34
2698.30,36
2697.33,38
2696.37,35
2695.40,33
2694.44,31
2693.47,28
2692.51,24
2691.55,25
2690.58,32
2689.62,37
2688.65,35
2687.69,29
2686.72,26
2685.76,29
2684.80,37
2683.83,41
2682.87,36
2681.90,24
2680.94,11
2679.98,3
2679.01,1
2678.05,5
2677.08,15
2676.12,26
2675.15,28
2674.19,23
2673.23,17
2672.26,11
2671.30,7
2670.33,5
2669.37,4
2668.40,2
2667.44,-2
2666.48,-5
2665.51,0
2664.55,9
2663.58,12
2662.62,9
2661.65,5
2660.69,3
2659.73,3
2658.76,6
2657.80,6
2656.83,1
2655.87,5
2654.91,12
2653.94,5
2652.98,-10
2652.01,-16
2651.05,-9
2650.08,-1
2649.12,1
2648.16,-4
2647.19,-14
2646.23,-22
2645.26,-25
2644.30,-21
2643.33,-9
2642.37,3
2641.41,8
2640.44,4
2639.48,-8
2638.51,-21
2637.55,-21
2636.58,-14
2635.62,-9
2634.66,-7
2633.69,-11
2632.73,-17
2631.76,-20
2630.80,-17
2629.83,-6
2628.87,9
2627.91,18
2626.94,16
2625.98,7
2625.01,-4
2624.05,-9
2623.09,-7
2622.12,-4
2621.16,-4
2620.19,-4
2619.23,-3
2618.26,-1
2617.30,0
2616.34,1
2615.37,2
2614.41,2
2613.44,2
2612.48,1
2611.51,-1
2610.55,-2
2609.59,-2
2608.62,1
2607.66,2
2606.69,-4
2605.73,-14
2604.76,-15
2603.80,-3
2602.84,4
2601.87,0
2600.91,-5
2599.94,-3
2598.98,0
2598.02,2
2597.05,0
2596.09,-8
2595.12,-14
2594.16,-15
2593.19,-12
2592.23,-1
2591.27,9
2590.30,9
2589.34,4
2588.37,5
2587.41,7
2586.44,1
2585.48,-9
2584.52,-7
2583.55,-1
2582.59,-9
2581.62,-15
2580.66,-10
2579.69,-1
2578.73,0
2577.77,-7
2576.80,-14
2575.84,-13
2574.87,-9
2573.91,-6
2572.95,-1
2571.98,-2
2571.02,-10
2570.05,-16
2569.09,-14
2568.12,-7
2567.16,1
2566.20,3
2565.23,-0
2564.27,-3
2563.30,-5
2562.34,-7
2561.37,-5
2560.41,-0
2559.45,-2
2558.48,-9
2557.52,-16
2556.55,-18
2555.59,-14
2554.62,-9
2553.66,-9
2552.70,-17
2551.73,-26
2550.77,-28
2549.80,-27
2548.84,-30
2547.88,-36
2546.91,-34
2545.95,-28
2544.98,-27
2544.02,-24
2543.05,-17
2542.09,-13
2541.13,-12
2540.16,-14
2539.20,-17
2538.23,-17
2537.27,-15
2536.30,-16
2535.34,-19
2534.38,-14
2533.41,-9
2532.45,-15
2531.48,-21
2530.52,-22
2529.55,-21
2528.59,-16
2527.63,-9
2526.66,-9
2525.70,-13
2524.73,-8
2523.77,-1
2522.81,-4
2521.84,-11
2520.88,-10
2519.91,-4
2518.95,-1
2517.98,-5
2517.02,-9
2516.06,-9
2515.09,-4
2514.13,4
2513.16,12
2512.20,13
2511.23,6
2510.27,-2
2509.31,-6
2508.34,-6
2507.38,0
2506.41,5
2505.45,7
2504.48,11
2503.52,14
2502.56,14
2501.59,11
2500.63,7
2499.66,3
2498.70,5
2497.74,12
2496.77,17
2495.81,19
2494.84,22
2493.88,26
2492.91,14
2491.95,-1
2490.99,1
2490.02,17
2489.06,26
2488.09,23
2487.13,15
2486.16,10
2485.20,6
2484.24,4
2483.27,8
2482.31,14
2481.34,18
2480.38,19
2479.41,17
2478.45,13
2477.49,10
2476.52,9
2475.56,7
2474.59,3
2473.63,1
2472.66,3
2471.70,4
2470.74,6
2469.77,10
2468.81,11
2467.84,10
2466.88,13
2465.92,18
2464.95,18
2463.99,18
2463.02,15
2462.06,9
2461.09,3
2460.13,1
2459.17,-0
2458.20,-5
2457.24,-10
2456.27,-13
2455.31,-14
2454.34,-11
2453.38,-6
2452.42,-4
2451.45,-7
2450.49,-8
2449.52,-6
2448.56,-5
2447.59,-5
2446.63,-8
2445.67,-10
2444.70,-7
2443.74,7
2442.77,20
2441.81,27
2440.85,23
2439.88,10
2438.92,2
2437.95,1
2436.99,4
2436.02,7
2435.06,7
2434.10,0
2433.13,-5
2432.17,1
2431.20,11
2430.24,10
2429.27,4
2428.31,0
2427.35,-3
2426.38,-5
2425.42,-4
2424.45,-7
2423.49,-10
2422.52,-6
2421.56,6
2420.60,19
2419.63,25
2418.67,22
2417.70,12
2416.74,4
2415.78,1
2414.81,-6
2413.85,-15
2412.88,-21
2411.92,-19
2410.95,-7
2409.99,7
2409.03,12
2408.06,5
2407.10,-7
2406.13,-16
2405.17,-17
2404.20,-15
2403.24,-14
2402.28,-4
2401.31,9
2400.35,9
2399.38,3
2398.42,2
2397.45,7
2396.49,10
2395.53,5
2394.56,-1
2393.60,-1
2392.63,-0
2391.67,-5
2390.71,-10
2389.74,-6
2388.78,2
2387.81,6
2386.85,6
2385.88,3
2384.92,-1
2383.96,-2
2382.99,-1
2382.03,-3
2381.06,-3
2380.10,5
2379.13,19
2378.17,28
2377.21,28
2376.24,26
2375.28,25
2374.31,16
2373.35,-4
2372.38,-18
2371.42,-10
2370.46,6
2369.49,8
2368.53,-0
2367.56,1
2366.60,9
2365.64,12
2364.67,8
2363.71,1
2362.74,-3
2361.78,-5
2360.81,-6
2359.85,-5
2358.89,-4
2357.92,-9
2356.96,-16
2355.99,-17
2355.03,-12
2354.06,-5
2353.10,-3
2352.14,-9
2351.17,-12
2350.21,-11
2349.24,-10
2348.28,-9
2347.31,-4
2346.35,-1
2345.39,-3
2344.42,-8
2343.46,-12
2342.49,-14
2341.53,-14
2340.57,-13
2339.60,-10
2338.64,-6
2337.67,-2
2336.71,2
2335.74,0
2334.78,-6
2333.82,-12
2332.85,-15
2331.89,-15
2330.92,-10
2329.96,-2
2328.99,7
2328.03,14
2327.07,10
2326.10,-1
2325.14,-4
2324.17,2
2323.21,3
2322.24,-10
2321.28,-21
2320.32,-22
2319.35,-14
2318.39,-7
2317.42,-2
2316.46,-2
2315.49,-6
2314.53,-6
2313.57,-3
2312.60,-3
2311.64,-10
2310.67,-9
2309.71,1
2308.75,5
2307.78,1
2306.82,-3
2305.85,-5
2304.89,-6
2303.92,-8
2302.96,-9
2302.00,-8
2301.03,-10
2300.07,-12
2299.10,-10
2298.14,-8
2297.17,-8
2296.21,-7
2295.25,-6
2294.28,-10
2293.32,-10
2292.35,-6
2291.39,-0
2290.42,1
2289.46,-0
2288.50,-4
2287.53,-6
2286.57,-3
2285.60,-4
2284.64,-7
2283.68,2
2282.71,15
2281.75,12
2280.78,2
2279.82,0
2278.85,5
2277.89,3
2276.93,-5
2275.96,-6
2275.00,6
2274.03,15
2273.07,13
2272.10,9
2271.14,9
2270.18,10
2269.21,8
2268.25,2
2267.28,-2
2266.32,-3
2265.35,-0
2264.39,4
2263.43,8
2262.46,10
2261.50,14
2260.53,24
2259.57,34
2258.61,30
2257.64,14
2256.68,-3
2255.71,-11
2254.75,-5
2253.78,12
2252.82,23
2251.86,25
2250.89,21
2249.93,13
2248.96,14
2248.00,24
2247.03,25
2246.07,19
2245.11,17
2244.14,17
2243.18,17
2242.21,17
2241.25,14
2240.28,7
2239.32,3
2238.36,4
2237.39,9
2236.43,17
2235.46,23
2234.50,20
2233.54,13
2232.57,13
2231.61,17
2230.64,23
2229.68,27
2228.71,21
2227.75,8
2226.79,1
2225.82,3
2224.86,10
2223.89,15
2222.93,16
2221.96,12
2221.00,5
2220.04,4
2219.07,6
2218.11,-0
2217.14,-11
2216.18,-10
2215.21,5
2214.25,20
2213.29,22
2212.32,13
2211.36,7
2210.39,8
2209.43,11
2208.47,12
2207.50,8
2206.54,0
2205.57,-3
2204.61,3
2203.64,13
2202.68,19
2201.72,22
2200.75,26
2199.79,27
2198.82,22
2197.86,15
2196.89,7
2195.93,-0
2194.97,-3
2194.00,-0
2193.04,1
2192.07,0
2191.11,6
2190.14,18
2189.18,24
2188.22,21
2187.25,17
2186.29,14
2185.32,15
2184.36,18
2183.40,18
2182.43,12
2181.47,-0
2180.50,-8
2179.54,-9
2178.57,-7
2177.61,-4
2176.65,1
2175.68,7
2174.72,9
2173.75,7
2172.79,5
2171.82,1
2170.86,0
2169.90,6
2168.93,13
2167.97,11
2167.00,1
2166.04,-7
2165.07,-9
2164.11,-8
2163.15,-7
2162.18,-5
2161.22,2
2160.25,8
2159.29,10
2158.32,13
2157.36,15
2156.40,13
2155.43,9
2154.47,4
2153.50,1
2152.54,1
2151.58,4
2150.61,7
2149.65,7
2148.68,5
2147.72,5
2146.75,8
2145.79,12
2144.83,14
2143.86,13
2142.90,11
2141.93,5
2140.97,-2
2140.00,-7
2139.04,-8
2138.08,-3
2137.11,4
2136.15,6
2135.18,5
2134.22,2
2133.25,2
2132.29,3
2131.33,3
2130.36,6
2129.40,9
2128.43,9
2127.47,8
2126.51,9
2125.54,10
2124.58,10
2123.61,10
2122.65,8
2121.68,5
2120.72,5
2119.76,6
2118.79,9
2117.83,10
2116.86,7
2115.90,0
2114.93,-7
2113.97,-9
2113.01,-1
2112.04,10
2111.08,15
2110.11,15
2109.15,11
2108.18,3
2107.22,1
2106.26,4
2105.29,2
2104.33,-1
2103.36,6
2102.40,17
2101.44,24
2100.47,23
2099.51,17
2098.54,11
2097.58,4
2096.61,-4
2095.65,-12
2094.69,-13
2093.72,-8
2092.76,-6
2091.79,-5
2090.83,2
2089.86,11
2088.90,13
2087.94,7
2086.97,2
2086.01,5
2085.04,12
2084.08,14
2083.11,10
2082.15,9
2081.19,10
2080.22,9
2079.26,8
2078.29,11
2077.33,19
2076.37,22
2075.40,20
2074.44,15
2073.47,11
2072.51,9
2071.54,9
2070.58,7
2069.62,2
2068.65,-3
2067.69,-2
2066.72,2
2065.76,6
2064.79,8
2063.83,12
2062.87,20
2061.90,25
2060.94,20
2059.97,10
2059.01,1
2058.04,-6
2057.08,-12
2056.12,-18
2055.15,-19
2054.19,-10
2053.22,2
2052.26,1
2051.30,-7
2050.33,-8
2049.37,-7
2048.40,-8
2047.44,-9
2046.47,-5
2045.51,1
2044.55,7
2043.58,10
2042.62,11
2041.65,8
2040.69,5
2039.72,7
2038.76,9
2037.80,4
2036.83,-3
2035.87,-7
2034.90,-5
2033.94,0
2032.97,6
2032.01,8
2031.05,5
2030.08,-2
2029.12,-7
2028.15,-10
2027.19,-7
2026.23,2
2025.26,4
2024.30,-3
2023.33,-5
2022.37,1
2021.40,2
2020.44,-5
2019.48,-15
2018.51,-24
2017.55,-28
2016.58,-26
2015.62,-21
2014.65,-22
2013.69,-26
2012.73,-25
2011.76,-15
2010.80,-1
2009.83,12
2008.87,18
2007.90,12
2006.94,1
2005.98,-11
2005.01,-21
2004.05,-28
2003.08,-29
2002.12,-25
2001.15,-19
2000.19,-15
1999.23,-14
1998.26,-17
1997.30,-19
1996.33,-18
1995.37,-19
1994.41,-20
1993.44,-20
1992.48,-19
1991.51,-16
1990.55,-11
1989.58,-11
1988.62,-18
1987.66,-22
1986.69,-16
1985.73,-10
1984.76,-10
1983.80,-11
1982.83,-5
1981.87,7
1980.91,12
1979.94,7
1978.98,-6
1978.01,-18
1977.05,-21
1976.08,-17
1975.12,-12
1974.16,-11
1973.19,-14
1972.23,-15
1971.26,-9
1970.30,-2
1969.34,2
1968.37,2
1967.41,3
1966.44,4
1965.48,-0
1964.51,-4
1963.55,0
1962.59,7
1961.62,10
1960.66,6
1959.69,-4
1958.73,-14
1957.76,-17
1956.80,-14
1955.84,-7
1954.87,3
1953.91,10
1952.94,9
1951.98,3
1951.01,2
1950.05,3
1949.09,2
1948.12,-5
1947.16,-9
1946.19,-8
1945.23,-5
1944.27,-4
1943.30,-4
1942.34,2
1941.37,10
1940.41,15
1939.44,16
1938.48,12
1937.52,6
1936.55,0
1935.59,-5
1934.62,-7
1933.66,-6
1932.69,-3
1931.73,-1
1930.77,0
1929.80,-0
1928.84,-0
1927.87,0
1926.91,-6
1925.94,-14
1924.98,-10
1924.02,-2
1923.05,-1
1922.09,-3
1921.12,-6
1920.16,-11
1919.20,-9
1918.23,1
1917.27,11
1916.30,7
1915.34,-6
1914.37,-15
1913.41,-17
1912.45,-20
1911.48,-25
1910.52,-25
1909.55,-19
1908.59,-15
1907.62,-16
1906.66,-19
1905.70,-21
1904.73,-21
1903.77,-21
1902.80,-24
1901.84,-22
1900.87,-13
1899.91,-7
1898.95,-7
1897.98,-5
1897.02,0
1896.05,6
1895.09,8
1894.13,5
1893.16,3
1892.20,5
1891.23,2
1890.27,-7
1889.30,-15
1888.34,-16
1887.38,-10
1886.41,-0
1885.45,11
1884.48,18
1883.52,18
1882.55,11
1881.59,1
1880.63,-3
1879.66,-4
1878.70,-4
1877.73,1
1876.77,4
1875.80,-0
1874.84,-5
1873.88,1
1872.91,14
1871.95,23
1870.98,17
1870.02,4
1869.06,-5
1868.09,-6
1867.13,-1
1866.16,2
1865.20,5
1864.23,6
1863.27,7
1862.31,8
1861.34,7
1860.38,-3
1859.41,-14
1858.45,-14
1857.48,-6
1856.52,2
1855.56,3
1854.59,5
1853.63,9
1852.66,15
1851.70,21
1850.73,21
1849.77,7
1848.81,-7
1847.84,-8
1846.88,-1
1845.91,5
1844.95,8
1843.98,10
1843.02,14
1842.06,18
1841.09,21
1840.13,16
1839.16,3
1838.20,-6
1837.24,-10
1836.27,-9
1835.31,-3
1834.34,6
1833.38,10
1832.41,2
1831.45,-9
1830.49,-16
1829.52,-15
1828.56,-11
1827.59,-11
1826.63,-9
1825.66,-5
1824.70,2
1823.74,4
1822.77,1
1821.81,1
1820.84,1
1819.88,-5
1818.91,-10
1817.95,-9
1816.99,-8
1816.02,-9
1815.06,-14
1814.09,-18
1813.13,-17
1812.17,-10
1811.20,-0
1810.24,11
1809.27,16
1808.31,9
1807.34,3
1806.38,6
1805.42,11
1804.45,10
1803.49,8
1802.52,1
1801.56,-12
1800.59,-18
1799.63,-8
1798.67,5
1797.70,5
1796.74,-1
1795.77,-4
1794.81,-5
1793.84,-6
1792.88,-4
1791.92,-4
1790.95,-10
1789.99,-15
1789.02,-14
1788.06,-13
1787.10,-18
1786.13,-26
1785.17,-27
1784.20,-15
1783.24,1
1782.27,7
1781.31,4
1780.35,1
1779.38,-1
1778.42,-1
1777.45,2
1776.49,7
1775.52,9
1774.56,6
1773.60,-1
1772.63,-8
1771.67,-13
1770.70,-12
1769.74,-6
1768.77,1
1767.81,9
1766.85,19
1765.88,27
1764.92,24
1763.95,20
1762.99,20
1762.03,19
1761.06,26
1760.10,38
1759.13,43
1758.17,37
1757.20,27
1756.24,24
1755.28,32
1754.31,46
1753.35,63
1752.38,78
1751.42,86
1750.45,90
1749.49,96
1748.53,107
1747.56,116
1746.60,124
1745.63,140
1744.67,159
1743.70,173
1742.74,180
1741.78,194
1740.81,219
1739.85,249
1738.88,283
1737.92,325
1736.96,378
1735.99,447
1735.03,528
1734.06,620
1733.10,721
1732.13,828
1731.17,935
1730.21,1036
1729.24,1133
1728.28,1215
1727.31,1273
1726.35,1302
1725.38,1297
1724.42,1266
1723.46,1223
1722.49,1171
1721.53,1113
1720.56,1049
1719.60,976
1718.63,889
1717.67,798
1716.71,709
1715.74,622
1714.78,539
1713.81,462
1712.85,397
1711.89,342
1710.92,292
1709.96,243
1708.99,200
1708.03,167
1707.06,140
1706.10,109
1705.14,80
1704.17,64
1703.21,58
1702.24,53
1701.28,50
1700.31,47
1699.35,37
1698.39,24
1697.42,14
1696.46,6
1695.49,-5
1694.53,-16
1693.56,-21
1692.60,-18
1691.64,-13
1690.67,-3
1689.71,6
1688.74,6
1687.78,2
1686.81,1
1685.85,1
1684.89,-1
1683.92,-6
1682.96,-11
1681.99,-12
1681.03,-10
1680.07,-7
1679.10,-7
1678.14,-7
1677.17,-3
1676.21,0
1675.24,4
1674.28,13
1673.32,22
1672.35,27
1671.39,24
1670.42,14
1669.46,0
1668.49,-8
1667.53,-4
1666.57,8
1665.60,22
1664.64,32
1663.67,36
1662.71,31
1661.74,22
1660.78,22
1659.82,30
1658.85,40
1657.89,45
1656.92,42
1655.96,41
1655.00,47
1654.03,54
1653.07,58
1652.10,64
1651.14,77
1650.17,95
1649.21,108
1648.25,112
1647.28,114
1646.32,125
1645.35,138
1644.39,146
1643.42,152
1642.46,155
1641.50,156
1640.53,164
1639.57,182
1638.60,203
1637.64,220
1636.67,232
1635.71,240
1634.75,248
1633.78,262
1632.82,289
1631.85,322
1630.89,352
1629.93,378
1628.96,395
1628.00,407
1627.03,436
1626.07,480
1625.10,539
1624.14,608
1623.18,694
1622.21,799
1621.25,926
1620.28,1083
1619.32,1276
1618.35,1512
1617.39,1798
1616.43,2112
1615.46,2399
1614.50,2671
1613.53,2795
1612.57,2819
1611.60,2734
1610.64,2550
1609.68,2336
1608.71,2108
1607.75,1892
1606.78,1717
1605.82,1577
1604.86,1450
1603.89,1331
1602.93,1224
1601.96,1128
1601.00,1036
1600.03,941
1599.07,854
1598.11,782
1597.14,725
1596.18,687
1595.21,664
1594.25,637
1593.28,599
1592.32,556
1591.36,519
1590.39,495
1589.43,478
1588.46,464
1587.50,450
1586.53,437
1585.57,424
1584.61,409
1583.64,393
1582.68,378
1581.71,365
1580.75,351
1579.79,341
1578.82,338
1577.86,340
1576.89,339
1575.93,328
1574.96,307
1574.00,283
1573.04,264
1572.07,253
1571.11,245
1570.14,240
1569.18,233
1568.21,220
1567.25,204
1566.29,189
1565.32,176
1564.36,166
1563.39,162
1562.43,159
1561.46,154
1560.50,143
1559.54,130
1558.57,122
1557.61,124
1556.64,127
1555.68,126
1554.72,118
1553.75,109
1552.79,98
1551.82,88
1550.86,82
1549.89,79
1548.93,83
1547.97,87
1547.00,79
1546.04,57
1545.07,38
1544.11,32
1543.14,34
1542.18,34
1541.22,31
1540.25,24
1539.29,16
1538.32,8
1537.36,1
1536.39,-1
1535.43,4
1534.47,10
1533.50,16
1532.54,22
1531.57,27
1530.61,25
1529.64,17
1528.68,7
1527.72,-0
1526.75,1
1525.79,9
1524.82,19
1523.86,21
1522.90,16
1521.93,14
1520.97,16
1520.00,10
1519.04,5
1518.07,8
1517.11,13
1516.15,20
1515.18,30
1514.22,39
1513.25,42
1512.29,42
1511.32,42
1510.36,41
1509.40,35
1508.43,32
1507.47,39
1506.50,46
1505.54,49
1504.57,43
1503.61,29
1502.65,18
1501.68,19
1500.72,26
1499.75,28
1498.79,22
1497.83,15
1496.86,14
1495.90,23
1494.93,31
1493.97,27
1493.00,15
1492.04,5
1491.08,-2
1490.11,-6
1489.15,-4
1488.18,-2
1487.22,-5
1486.25,-13
1485.29,-19
1484.33,-20
1483.36,-18
1482.40,-19
1481.43,-22
1480.47,-24
1479.50,-19
1478.54,-9
1477.58,1
1476.61,10
1475.65,17
1474.68,20
1473.72,22
1472.76,33
1471.79,51
1470.83,60
1469.86,67
1468.90,83
1467.93,107
1466.97,130
1466.01,146
1465.04,155
1464.08,164
1463.11,176
1462.15,190
1461.18,199
1460.22,201
1459.26,216
1458.29,245
1457.33,268
1456.36,282
1455.40,292
1454.43,301
1453.47,305
1452.51,306
1451.54,311
1450.58,324
1449.61,344
1448.65,360
1447.69,362
1446.72,349
1445.76,335
1444.79,327
1443.83,326
1442.86,328
1441.90,334
1440.94,347
1439.97,353
1439.01,349
1438.04,345
1437.08,339
1436.11,323
1435.15,306
1434.19,295
1433.22,283
1432.26,268
1431.29,248
1430.33,226
1429.36,209
1428.40,200
1427.44,198
1426.47,201
1425.51,196
1424.54,175
1423.58,147
1422.62,123
1421.65,107
1420.69,97
1419.72,91
1418.76,84
1417.79,75
1416.83,66
1415.87,59
1414.90,57
1413.94,55
1412.97,58
1412.01,71
1411.04,87
1410.08,93
1409.12,86
1408.15,73
1407.19,63
1406.22,60
1405.26,58
1404.29,43
1403.33,24
1402.37,10
1401.40,1
1400.44,-2
1399.47,0
1398.51,9
1397.55,12
1396.58,7
1395.62,2
1394.65,2
1393.69,2
1392.72,6
1391.76,10
1390.80,8
1389.83,2
1388.87,-2
1387.90,0
1386.94,3
1385.97,3
1385.01,-3
1384.05,-9
1383.08,-7
1382.12,-1
1381.15,1
1380.19,2
1379.22,1
1378.26,-5
1377.30,-12
1376.33,-16
1375.37,-16
1374.40,-16
1373.44,-16
1372.47,-14
1371.51,-9
1370.55,-2
1369.58,0
1368.62,-6
1367.65,-15
1366.69,-18
1365.73,-17
1364.76,-16
1363.80,-16
1362.83,-15
1361.87,-10
1360.90,1
1359.94,11
1358.98,12
1358.01,4
1357.05,-6
1356.08,-13
1355.12,-17
1354.15,-19
1353.19,-19
1352.23,-19
1351.26,-25
1350.30,-28
1349.33,-25
1348.37,-29
1347.40,-40
1346.44,-45
1345.48,-42
1344.51,-36
1343.55,-28
1342.58,-19
1341.62,-10
1340.66,-4
1339.69,2
1338.73,2
1337.76,-3
1336.80,-12
1335.83,-20
1334.87,-23
1333.91,-18
1332.94,-8
1331.98,-4
1331.01,-1
1330.05,2
1329.08,5
1328.12,8
1327.16,11
1326.19,12
1325.23,9
1324.26,4
1323.30,3
1322.33,10
1321.37,18
1320.41,20
1319.44,19
1318.48,22
1317.51,29
1316.55,37
1315.59,43
1314.62,54
1313.66,69
1312.69,81
1311.73,87
1310.76,91
1309.80,96
1308.84,106
1307.87,120
1306.91,134
1305.94,147
1304.98,155
1304.01,154
1303.05,142
1302.09,130
1301.12,117
1300.16,106
1299.19,100
1298.23,101
1297.26,103
1296.30,107
1295.34,114
1294.37,129
1293.41,146
1292.44,157
1291.48,169
1290.52,190
1289.55,218
1288.59,249
1287.62,283
1286.66,322
1285.69,362
1284.73,393
1283.77,412
1282.80,429
1281.84,450
1280.87,481
1279.91,520
1278.94,559
1277.98,588
1277.02,599
1276.05,594
1275.09,581
1274.12,567
1273.16,552
1272.19,536
1271.23,516
1270.27,484
1269.30,439
1268.34,395
1267.37,360
1266.41,329
1265.45,289
1264.48,250
1263.52,226
1262.55,206
1261.59,180
1260.62,149
1259.66,121
1258.70,102
1257.73,92
1256.77,86
1255.80,76
1254.84,59
1253.87,44
1252.91,30
1251.95,12
1250.98,-7
1250.02,-16
1249.05,-15
1248.09,-7
1247.12,3
1246.16,11
1245.20,11
1244.23,3
1243.27,-4
1242.30,-4
1241.34,-1
1240.38,-4
1239.41,-12
1238.45,-18
1237.48,-10
1236.52,11
1235.55,15
1234.59,8
1233.63,1
1232.66,-5
1231.70,-10
1230.73,-17
1229.77,-24
1228.80,-27
1227.84,-26
1226.88,-20
1225.91,-8
1224.95,4
1223.98,9
1223.02,6
1222.05,1
1221.09,-2
1220.13,-3
1219.16,9
1218.20,21
1217.23,17
1216.27,8
1215.30,2
1214.34,1
1213.38,1
1212.41,-2
1211.45,-8
1210.48,-15
1209.52,-16
1208.56,-11
1207.59,-6
1206.63,-5
1205.66,-7
1204.70,-8
1203.73,-6
1202.77,-1
1201.81,5
1200.84,8
1199.88,6
1198.91,-5
1197.95,-18
1196.98,-24
1196.02,-20
1195.06,-12
1194.09,-8
1193.13,-11
1192.16,-16
1191.20,-17
1190.23,-14
1189.27,-12
1188.31,-14
1187.34,-13
1186.38,-5
1185.41,7
1184.45,11
1183.49,9
1182.52,15
1181.56,26
1180.59,42
1179.63,64
1178.66,90
1177.70,118
1176.74,144
1175.77,166
1174.81,185
1173.84,202
1172.88,212
1171.91,217
1170.95,209
1169.99,183
1169.02,147
1168.06,115
1167.09,81
1166.13,60
1165.16,46
1164.20,34
1163.24,23
1162.27,11
1161.31,-1
1160.34,-10
1159.38,-14
1158.42,-9
1157.45,-1
1156.49,2
1155.52,6
1154.56,11
1153.59,14
1152.63,11
1151.67,-0
1150.70,-15
1149.74,-24
1148.77,-24
1147.81,-18
1146.84,-10
1145.88,-2
1144.92,4
1143.95,5
1142.99,4
1142.02,1
1141.06,0
1140.09,-1
1139.13,-5
1138.17,-10
1137.20,-13
1136.24,-12
1135.27,-7
1134.31,1
1133.35,9
1132.38,12
1131.42,23
1130.45,46
1129.49,74
1128.52,98
1127.56,113
1126.60,122
1125.63,131
1124.67,144
1123.70,161
1122.74,179
1121.77,198
1120.81,216
1119.85,235
1118.88,255
1117.92,276
1116.95,290
1115.99,295
1115.02,305
1114.06,320
1113.10,335
1112.13,344
1111.17,345
1110.20,339
1109.24,329
1108.28,322
1107.31,321
1106.35,321
1105.38,318
1104.42,309
1103.45,297
1102.49,288
1101.53,288
1100.56,289
1099.60,295
1098.63,306
1097.67,313
1096.70,311
1095.74,296
1094.78,273
1093.81,258
1092.85,270
1091.88,329
1090.92,457
1089.95,631
1088.99,818
1088.03,1011
1087.06,1183
1086.10,1278
1085.13,1325
1084.17,1175
1083.21,891
1082.24,634
1081.28,428
1080.31,270
1079.35,165
1078.38,112
1077.42,87
1076.46,70
1075.49,65
1074.53,56
1073.56,43
1072.60,32
1071.63,25
1070.67,19
1069.71,13
1068.74,13
1067.78,19
1066.81,28
1065.85,39
1064.88,46
1063.92,47
1062.96,36
1061.99,17
1061.03,-1
1060.06,-5
1059.10,-1
1058.13,3
1057.17,7
1056.21,9
1055.24,5
1054.28,-7
1053.31,-15
1052.35,-14
1051.39,-8
1050.42,-1
1049.46,3
1048.49,2
1047.53,-3
1046.56,-6
1045.60,-4
1044.64,0
1043.67,-1
1042.71,-4
1041.74,-5
1040.78,-4
1039.81,-0
1038.85,4
1037.89,5
1036.92,-1
1035.96,-9
1034.99,-15
1034.03,-19
1033.06,-25
1032.10,-34
1031.14,-41
1030.17,-39
1029.21,-29
1028.24,-19
1027.28,-15
1026.32,-18
1025.35,-23
1024.39,-26
1023.42,-25
1022.46,-22
1021.49,-17
1020.53,-12
1019.57,-9
1018.60,-9
1017.64,-10
1016.67,-11
1015.71,-12
1014.74,-12
1013.78,-13
1012.82,-16
1011.85,-22
1010.89,-29
1009.92,-34
1008.96,-33
1007.99,-27
1007.03,-18
1006.07,-10
1005.10,-5
1004.14,-3
1003.17,-5
1002.21,-5
1001.25,6
1000.28,19
999.32,18
998.35,9
997.39,1
996.42,0
995.46,4
994.50,10
993.53,10
992.57,4
991.60,-2
990.64,-5
989.67,-3
988.71,3
987.75,9
986.78,13
985.82,16
984.85,17
983.89,16
982.92,13
981.96,7
981.00,2
980.03,3
979.07,9
978.10,12
977.14,10
976.18,7
975.21,4
974.25,2
973.28,0
972.32,-1
971.35,0
970.39,6
969.43,13
968.46,21
967.50,23
966.53,17
965.57,7
964.60,1
963.64,-0
962.68,1
961.71,6
960.75,11
959.78,10
958.82,6
957.85,1
956.89,1
955.93,-12
954.96,-28
954.00,-37
953.03,-40
952.07,-37
951.11,-31
950.14,-20
949.18,-20
948.21,-27
947.25,-33
946.28,-36
945.32,-40
944.36,-45
943.39,-52
942.43,-60
941.46,-61
940.50,-55
939.53,-44
938.57,-33
937.61,-24
936.64,-21
935.68,-22
934.71,-17
933.75,-5
932.78,2
931.82,1
930.86,-1
929.89,0
928.93,2
927.96,-1
927.00,-8
926.04,-13
925.07,-13
924.11,-9
923.14,-6
922.18,-4
921.21,-3
920.25,-0
919.29,1
918.32,-5
917.36,-15
916.39,-26
915.43,-31
914.46,-30
913.50,-25
912.54,-21
911.57,-17
910.61,-12
909.64,-5
908.68,2
907.71,10
906.75,14
905.79,11
904.82,4
903.86,-2
902.89,-2
901.93,1
900.96,1
900.00,-9
899.04,-12
898.07,-13
897.11,-12
896.14,-8
895.18,5
894.22,23
893.25,46
892.29,61
891.32,67
890.36,73
889.39,87
888.43,110
887.47,129
886.50,134
885.54,135
884.57,132
883.61,126
882.64,121
881.68,117
880.72,111
879.75,116
878.79,136
877.82,154
876.86,172
875.89,193
874.93,221
873.97,251
873.00,271
872.04,280
871.07,290
870.11,303
869.15,312
868.18,313
867.22,310
866.25,303
865.29,286
864.32,270
863.36,263
862.40,260
861.43,250
860.47,226
859.50,188
858.54,149
857.57,116
856.61,89
855.65,67
854.68,51
853.72,42
852.75,41
851.79,37
850.82,27
849.86,17
848.90,12
847.93,15
846.97,20
846.00,15
845.04,2
844.08,-2
843.11,6
842.15,18
841.18,26
840.22,28
839.25,30
838.29,33
837.33,26
836.36,0
835.40,-39
834.43,-61
833.47,-26
832.50,27
831.54,31
830.58,18
829.61,12
828.65,14
827.68,14
826.72,11
825.75,9
824.79,4
823.83,-3
822.86,-6
821.90,-4
820.93,2
819.97,4
819.01,-2
818.04,-8
817.08,-16
816.11,-22
815.15,-23
814.18,-13
813.22,0
812.26,6
811.29,6
810.33,4
809.36,3
808.40,3
807.43,4
806.47,8
805.51,9
804.54,5
803.58,-2
802.61,-7
801.65,-9
800.68,-4
799.72,8
798.76,21
797.79,32
796.83,39
795.86,37
794.90,25
793.94,12
792.97,8
792.01,3
791.04,-3
790.08,-9
789.11,-15
788.15,-21
787.19,-22
786.22,-19
785.26,-16
784.29,-13
783.33,-10
782.36,-6
781.40,1
780.44,4
779.47,-1
778.51,-12
777.54,-19
776.58,-21
775.61,-19
774.65,-18
773.69,-12
772.72,-5
771.76,0
770.79,5
769.83,12
768.87,22
767.90,29
766.94,33
765.97,38
765.01,44
764.04,47
763.08,43
762.12,32
761.15,17
760.19,6
759.22,4
758.26,9
757.29,12
756.33,4
755.37,-8
754.40,-15
753.44,-16
752.47,-13
751.51,-7
750.54,-2
749.58,1
748.62,0
747.65,1
746.69,2
745.72,2
744.76,-3
743.79,-10
742.83,-21
741.87,-32
740.90,-38
739.94,-36
738.97,-30
738.01,-24
737.05,-22
736.08,-23
735.12,-22
734.15,-15
733.19,-5
732.22,4
731.26,10
730.30,9
729.33,4
728.37,2
727.40,6
726.44,12
725.47,11
724.51,0
723.55,-13
722.58,-20
721.62,-21
720.65,-17
719.69,-10
718.72,-3
717.76,17
716.80,51
715.83,86
714.87,117
713.90,141
712.94,158
711.98,171
711.01,184
710.05,198
709.08,214
708.12,231
707.15,248
706.19,260
705.23,279
704.26,302
703.30,316
702.33,320
701.37,316
700.40,300
699.44,269
698.48,240
697.51,218
696.55,204
695.58,196
694.62,192
693.65,190
692.69,184
691.73,175
690.76,166
689.80,158
688.83,143
687.87,131
686.91,182
685.94,213
684.98,174
684.01,114
683.05,131
682.08,193
681.12,147
680.16,81
679.19,48
678.23,55
677.26,73
676.30,75
675.33,68
674.37,59
673.41,46
672.44,33
671.48,23
670.51,15
669.55,3
668.58,-3
667.62,-3
666.66,-1
665.69,-1
664.73,0
663.76,9
662.80,20
661.84,29
660.87,37
659.91,44
658.94,53
657.98,61
657.01,67
656.05,74
655.09,83
654.12,97
653.16,116
652.19,136
651.23,152
650.26,163
649.30,171
648.34,180
647.37,192
646.41,209
645.44,230
644.48,252
643.51,271
642.55,286
641.59,298
640.62,310
639.66,326
638.69,356
637.73,403
636.77,466
635.80,543
634.84,626
633.87,686
632.91,732
631.94,726
630.98,665
630.02,573
629.05,488
628.09,400
627.12,341
626.16,307
625.19,286
624.23,265
623.27,239
622.30,219
621.34,206
620.37,200
619.41,195
618.44,190
617.48,185
616.52,187
615.55,191
614.59,192
613.62,188
612.66,181
611.70,173
610.73,168
609.77,161
608.80,153
607.84,143
606.87,132
605.91,119
604.95,108
603.98,99
603.02,89
602.05,77
601.09,65
600.12,54
599.16,45
598.20,39
597.23,29
596.27,17
595.30,5
594.34,-0
593.37,2
592.41,6
591.45,10
590.48,12
589.52,11
588.55,6
587.59,0
586.62,-1
585.66,1
584.70,0
583.73,-4
582.77,-3
581.80,10
580.84,24
579.88,29
578.91,26
577.95,21
576.98,19
576.02,21
575.05,29
574.09,37
573.13,42
572.16,39
571.20,32
570.23,24
569.27,17
568.30,12
567.34,12
566.38,16
565.41,23
564.45,27
563.48,29
562.52,30
561.55,29
560.59,23
559.63,12
558.66,4
557.70,3
556.73,13
555.77,27
554.81,39
553.84,41
552.88,39
551.91,36
550.95,34
549.98,38
549.02,48
548.06,55
547.09,50
546.13,36
545.16,23
544.20,18
543.23,18
542.27,23
541.31,27
540.34,29
539.38,26
538.41,18
537.45,10
536.48,7
535.52,5
534.56,2
533.59,-0
532.63,2
531.66,9
530.70,13
529.74,12
528.77,8
527.81,5
526.84,4
525.88,4
524.91,4
523.95,6
522.99,7
522.02,6
521.06,7
520.09,9
519.13,9
518.16,7
517.20,5
516.24,1
515.27,-4
514.31,-4
513.34,2
512.38,11
511.41,17
510.45,15
509.49,3
508.52,-7
507.56,-8
506.59,0
505.63,13
504.67,18
503.70,16
502.74,17
501.77,21
500.81,25
499.84,25
498.88,19
497.92,11
496.95,2
495.99,-4
495.02,-5
494.06,-1
493.09,4
492.13,8
491.17,10
490.20,9
489.24,6
488.27,4
487.31,9
486.34,15
485.38,21
484.42,25
483.45,27
482.49,25
481.52,25
480.56,25
479.60,24
478.63,21
477.67,16
476.70,9
475.74,1
474.77,-6
473.81,-10
472.85,-12
471.88,-15
470.92,-17
469.95,-15
468.99,-12
468.02,-10
467.06,-12
466.10,-15
465.13,-16
464.17,-14
463.20,-10
462.24,-7
461.27,-6
460.31,-9
459.35,-13
458.38,-16
457.42,-14
456.45,-7
455.49,5
454.53,14
453.56,17
452.60,15
451.63,7
450.67,0
449.70,2
448.74,10
447.78,15
446.81,14
445.85,7
444.88,8
443.92,13
442.95,16
441.99,15
441.03,9
440.06,5
439.10,4
438.13,2
437.17,-5
436.20,-13
435.24,-19
434.28,-16
433.31,-14
432.35,-13
431.38,-12
430.42,-8
429.45,-5
428.49,-2
427.53,-0
426.56,0
425.60,-4
424.63,-13
423.67,-20
422.71,-20
421.74,-15
420.78,-8
419.81,-3
418.85,-4
417.88,-6
416.92,-9
415.96,-12
414.99,-16
414.03,-22
413.06,-29
412.10,-32
411.13,-32
410.17,-31
409.21,-28
408.24,-25
407.28,-21
406.31,-15
405.35,-12
404.38,-13
403.42,-19
402.46,-22
401.49,-25
400.53,-29
399.56,-33
398.60,-38
397.64,-44
396.67,-48
395.71,-48
394.74,-43
393.78,-34
392.81,-25
391.85,-19
390.89,-20
389.92,-25
388.96,-30
387.99,-28
387.03,-20
386.06,-9
385.10,0
384.14,2
383.17,-3
382.21,-10
381.24,-12
380.28,-13
379.31,-16
378.35,-19
377.39,-21
376.42,-16
375.46,-7
374.49,3
373.53,8
372.57,7
371.60,6
370.64,7
369.67,10
368.71,17
367.74,27
366.78,28
365.82,26
364.85,28
363.89,38
362.92,56
361.96,68
360.99,66
360.03,57
359.07,49
358.10,45
357.14,49
356.17,56
355.21,64
354.24,71
353.28,74
352.32,66
351.35,44
350.39,21
349.42,5
348.46,-1
347.50,3
346.53,9
345.57,11
344.60,11
343.64,12
342.67,15
341.71,15
340.75,10
339.78,4
338.82,-0
337.85,-3
336.89,-3
335.92,-1
334.96,2
334.00,3
333.03,-0
332.07,-6
331.10,-10
330.14,-11
329.17,-11
328.21,-9
327.25,-5
326.28,2
325.32,8
324.35,12
323.39,13
322.43,9
321.46,11
320.50,20
319.53,28
318.57,31
317.60,25
316.64,17
315.68,13
314.71,11
313.75,14
312.78,27
311.82,45
310.85,53
309.89,54
308.93,51
307.96,45
307.00,37
306.03,28
305.07,23
304.10,26
303.14,38
302.18,59
301.21,74
300.25,80
299.28,81
298.32,79
297.36,80
296.39,88
295.43,99
294.46,111
293.50,122
292.53,134
291.57,145
290.61,157
289.64,170
288.68,187
287.71,209
286.75,238
285.78,269
284.82,300
283.86,331
282.89,359
281.93,385
280.96,406
280.00,415
279.03,413
278.07,401
277.11,383
276.14,362
275.18,340
274.21,318
273.25,296
272.28,278
271.32,260
270.36,242
269.39,226
268.43,211
267.46,196
266.50,180
265.54,165
264.57,150
263.61,137
262.64,125
261.68,116
260.71,112
259.75,111
258.79,110
257.82,108
256.86,100
255.89,90
254.93,81
253.96,73
253.00,68
252.04,69
251.07,70
250.11,71
249.14,71
248.18,70
247.21,69
246.25,67
245.29,63
244.32,58
243.36,53
242.39,49
241.43,47
240.47,47
239.50,49
238.54,52
237.57,54
236.61,54
235.64,53
234.68,54
233.72,57
232.75,60
231.79,78
230.82,112
229.86,154
228.89,184
227.93,198
226.97,206
226.00,206
225.04,198
224.07,178
223.11,139
222.14,95
221.18,61
220.22,46
219.25,42
218.29,38
217.32,40
216.36,42
215.40,41
214.43,33
213.47,19
212.50,7
211.54,0
210.57,4
209.61,16
208.65,28
207.68,34
206.72,31
205.75,20
204.79,2
203.82,-6
202.86,-3
201.90,6
200.93,15
199.97,19
199.00,21
198.04,21
197.07,20
196.11,20
195.15,20
194.18,18
193.22,13
192.25,5
191.29,-3
190.33,-7
189.36,-7
188.40,-7
187.43,-8
186.47,-11
185.50,-10
184.54,-7
183.58,-5
182.61,-5
181.65,-7
180.68,-9
179.72,-13
178.75,-16
177.79,-15
176.83,-10
175.86,-5
174.90,-1
173.93,1
172.97,2
172.00,4
171.04,4
170.08,3
169.11,1
168.15,0
167.18,3
166.22,-1
165.26,1
164.29,10
163.33,27
162.36,45
161.40,59
160.43,72
159.47,87
158.51,106
157.54,127
156.58,141
155.61,151
154.65,156
153.68,157
152.72,155
151.76,148
150.79,137
149.83,123
148.86,111
147.90,102
146.93,94
145.97,84
145.01,74
144.04,63
143.08,56
142.11,53
141.15,51
140.19,49
139.22,49
138.26,46
137.29,41
136.33,34
135.36,29
134.40,18
133.44,-3
132.47,-10
131.51,-10
130.54,-2
129.58,15
128.61,33
127.65,48
126.69,57
125.72,60
124.76,63
123.79,68
122.83,77
121.86,91
120.90,112
119.94,140
118.97,170
118.01,196
117.04,214
116.08,224
115.11,237
114.15,254
113.19,277
112.22,307
111.26,346
110.29,387
109.33,428
108.37,470
107.40,512
106.44,554
105.47,593
104.51,631
103.54,668
102.58,707
101.62,753
100.65,804
99.69,858
98.72,916
97.76,975
96.79,1034
95.83,1097
94.87,1165
93.90,1242
92.94,1329
91.97,1411
91.01,1487
90.04,1560
89.08,1637
88.12,1723
87.15,1804
86.19,1878
85.22,1943
84.26,2008
83.30,2077
82.33,2146
81.37,2215
80.40,2279
79.44,2338
78.47,2412
77.51,2498
76.55,2587
