Created As Omnic File,PLAS 137
Raman Shift / cm-1,INT
3418.58,12
3417.61,17
3416.65,18
3415.68,15
3414.72,11
3413.76,6
3412.79,6
3411.83,5
3410.86,5
3409.90,0
3408.94,2
3407.97,4
3407.01,4
3406.04,5
3405.08,7
3404.11,6
3403.15,4
3402.19,6
3401.22,8
3400.26,6
3399.29,6
3398.33,4
3397.36,1
3396.40,-3
3395.44,-3
3394.47,3
3393.51,6
3392.54,6
3391.58,5
3390.61,5
3389.65,8
3388.69,10
3387.72,4
3386.76,-0
3385.79,1
3384.83,3
3383.87,3
3382.90,0
3381.94,-3
3380.97,-5
3380.01,-8
3379.04,-12
3378.08,-15
3377.12,-11
3376.15,-3
3375.19,3
3374.22,7
3373.26,7
3372.29,4
3371.33,-1
3370.37,-6
3369.40,-12
3368.44,-13
3367.47,-6
3366.51,-5
3365.54,-11
3364.58,-10
3363.62,-8
3362.65,-8
3361.69,-10
3360.72,-11
3359.76,-11
3358.80,-9
3357.83,-6
3356.87,-1
3355.90,-0
3354.94,-6
3353.97,-11
3353.01,-16
3352.05,-15
3351.08,-7
3350.12,-3
3349.15,-4
3348.19,-5
3347.22,-11
3346.26,-10
3345.30,-6
3344.33,-4
3343.37,-4
3342.40,-5
3341.44,-6
3340.47,-7
3339.51,-6
3338.55,-5
3337.58,-5
3336.62,-5
3335.65,-5
3334.69,-5
3333.73,-3
3332.76,-1
3331.80,0
3330.83,-1
3329.87,-6
3328.90,-15
3327.94,-22
3326.98,-23
3326.01,-19
3325.05,-13
3324.08,-10
3323.12,-12
3322.15,-16
3321.19,-17
3320.23,-17
3319.26,-18
3318.30,-19
3317.33,-17
3316.37,-16
3315.40,-18
3314.44,-21
3313.48,-24
3312.51,-27
3311.55,-26
3310.58,-25
3309.62,-22
3308.66,-19
3307.69,-19
3306.73,-19
3305.76,-18
3304.80,-19
3303.83,-19
3302.87,-17
3301.91,-13
3300.94,-13
3299.98,-13
3299.01,-14
3298.05,-14
3297.08,-10
3296.12,-8
3295.16,-10
3294.19,-6
3293.23,3
3292.26,7
3291.30,2
3290.33,-7
3289.37,-14
3288.41,-14
3287.44,-12
3286.48,-13
3285.51,-15
3284.55,-10
3283.59,-4
3282.62,-3
3281.66,-6
3280.69,-5
3279.73,-3
3278.76,-3
3277.80,-5
3276.84,-7
3275.87,-9
3274.91,-7
3273.94,-5
3272.98,-6
3272.01,-4
3271.05,0
3270.09,1
3269.12,-4
3268.16,0
3267.19,2
3266.23,1
3265.26,1
3264.30,2
3263.34,2
3262.37,3
3261.41,5
3260.44,8
3259.48,10
3258.51,11
3257.55,9
3256.59,3
3255.62,-0
3254.66,-0
3253.69,-0
3252.73,-1
3251.77,-1
3250.80,0
3249.84,1
3248.87,1
3247.91,-2
3246.94,-5
3245.98,0
3245.02,5
3244.05,5
3243.09,5
3242.12,4
3241.16,2
3240.19,2
3239.23,6
3238.27,16
3237.30,22
3236.34,20
3235.37,19
3234.41,20
3233.44,26
3232.48,36
3231.52,42
3230.55,44
3229.59,45
3228.62,47
3227.66,54
3226.70,62
3225.73,60
3224.77,59
3223.80,66
3222.84,68
3221.87,61
3220.91,58
3219.95,63
3218.98,60
3218.02,48
3217.05,40
3216.09,40
3215.12,38
3214.16,31
3213.20,25
3212.23,19
3211.27,12
3210.30,6
3209.34,4
3208.37,4
3207.41,2
3206.45,-1
3205.48,-4
3204.52,-7
3203.55,-5
3202.59,-2
3201.63,-1
3200.66,-3
3199.70,-8
3198.73,-13
3197.77,-17
3196.80,-15
3195.84,-7
3194.88,-2
3193.91,-3
3192.95,-5
3191.98,-9
3191.02,-14
3190.05,-20
3189.09,-19
3188.13,-15
3187.16,-12
3186.20,-8
3185.23,-2
3184.27,1
3183.30,-2
3182.34,-5
3181.38,-3
3180.41,0
3179.45,0
3178.48,-2
3177.52,-5
3176.56,-4
3175.59,-0
3174.63,-2
3173.66,-7
3172.70,-7
3171.73,0
3170.77,7
3169.81,10
3168.84,8
3167.88,2
3166.91,4
3165.95,8
3164.98,4
3164.02,-2
3163.06,-3
3162.09,2
3161.13,7
3160.16,12
3159.20,16
3158.23,15
3157.27,14
3156.31,17
3155.34,22
3154.38,30
3153.41,33
3152.45,26
3151.49,15
3150.52,13
3149.56,17
3148.59,15
3147.63,6
3146.66,7
3145.70,15
3144.74,14
3143.77,11
3142.81,11
3141.84,12
3140.88,10
3139.91,4
3138.95,-2
3137.99,-5
3137.02,-1
3136.06,1
3135.09,-3
3134.13,-5
3133.16,-3
3132.20,1
3131.24,1
3130.27,-1
3129.31,-4
3128.34,-3
3127.38,0
3126.42,0
3125.45,-3
3124.49,-2
3123.52,-2
3122.56,3
3121.59,9
3120.63,7
3119.67,5
3118.70,5
3117.74,6
3116.77,9
3115.81,14
3114.84,18
3113.88,23
3112.92,31
3111.95,39
3110.99,45
3110.02,53
3109.06,65
3108.09,77
3107.13,85
3106.17,93
3105.20,105
3104.24,119
3103.27,132
3102.31,150
3101.34,171
3100.38,190
3099.42,210
3098.45,235
3097.49,263
3096.52,296
3095.56,335
3094.60,391
3093.63,461
3092.67,537
3091.70,623
3090.74,718
3089.77,823
3088.81,933
3087.85,1045
3086.88,1159
3085.92,1265
3084.95,1355
3083.99,1434
3083.02,1503
3082.06,1548
3081.10,1556
3080.13,1538
3079.17,1494
3078.20,1424
3077.24,1327
3076.27,1229
3075.31,1137
3074.35,1053
3073.38,977
3072.42,928
3071.45,912
3070.49,911
3069.53,917
3068.56,922
3067.60,918
3066.63,882
3065.67,815
3064.70,731
3063.74,630
3062.78,538
3061.81,453
3060.85,377
3059.88,315
3058.92,267
3057.95,231
3056.99,202
3056.03,177
3055.06,152
3054.10,134
3053.13,123
3052.17,114
3051.20,103
3050.24,90
3049.28,78
3048.31,69
3047.35,63
3046.38,62
3045.42,63
3044.46,59
3043.49,53
3042.53,50
3041.56,55
3040.60,58
3039.63,55
3038.67,55
3037.71,60
3036.74,65
3035.78,67
3034.81,69
3033.85,73
3032.88,81
3031.92,94
3030.96,98
3029.99,91
3029.03,99
3028.06,116
3027.10,127
3026.13,136
3025.17,144
3024.21,151
3023.24,157
3022.28,165
3021.31,174
3020.35,182
3019.39,198
3018.42,221
3017.46,240
3016.49,257
3015.53,276
3014.56,297
3013.60,322
3012.64,348
3011.67,370
3010.71,393
3009.74,422
3008.78,453
3007.81,484
3006.85,520
3005.89,562
3004.92,601
3003.96,631
3002.99,655
3002.03,679
3001.06,702
3000.10,725
2999.14,749
2998.17,772
2997.21,792
2996.24,810
2995.28,827
2994.32,843
2993.35,864
2992.39,884
2991.42,899
2990.46,916
2989.49,936
2988.53,956
2987.57,980
2986.60,1005
2985.64,1028
2984.67,1054
2983.71,1088
2982.74,1129
2981.78,1176
2980.82,1229
2979.85,1287
2978.89,1347
2977.92,1410
2976.96,1473
2975.99,1535
2975.03,1601
2974.07,1686
2973.10,1779
2972.14,1862
2971.17,1946
2970.21,2042
2969.25,2145
2968.28,2244
2967.32,2342
2966.35,2436
2965.39,2519
2964.42,2587
2963.46,2643
2962.50,2682
2961.53,2709
2960.57,2720
2959.60,2725
2958.64,2734
2957.67,2743
2956.71,2753
2955.75,2764
2954.78,2771
2953.82,2780
2952.85,2800
2951.89,2831
2950.92,2867
2949.96,2908
2949.00,2952
2948.03,2998
2947.07,3049
2946.10,3103
2945.14,3160
2944.17,3214
2943.21,3268
2942.25,3322
2941.28,3372
2940.32,3417
2939.35,3459
2938.39,3501
2937.43,3543
2936.46,3582
2935.50,3617
2934.53,3653
2933.57,3691
2932.60,3726
2931.64,3757
2930.68,3789
2929.71,3826
2928.75,3861
2927.78,3891
2926.82,3908
2925.85,3906
2924.89,3886
2923.93,3854
2922.96,3806
2922.00,3748
2921.03,3691
2920.07,3628
2919.10,3553
2918.14,3472
2917.18,3395
2916.21,3315
2915.25,3224
2914.28,3128
2913.32,3035
2912.36,2950
2911.39,2879
2910.43,2813
2909.46,2744
2908.50,2680
2907.53,2629
2906.57,2586
2905.61,2542
2904.64,2502
2903.68,2473
2902.71,2455
2901.75,2434
2900.78,2404
2899.82,2363
2898.86,2317
2897.89,2273
2896.93,2226
2895.96,2166
2895.00,2095
2894.03,2018
2893.07,1941
2892.11,1864
2891.14,1790
2890.18,1725
2889.21,1664
2888.25,1615
2887.29,1571
2886.32,1531
2885.36,1502
2884.39,1480
2883.43,1459
2882.46,1441
2881.50,1430
2880.54,1415
2879.57,1409
2878.61,1417
2877.64,1415
2876.68,1401
2875.71,1388
2874.75,1380
2873.79,1370
2872.82,1351
2871.86,1327
2870.89,1304
2869.93,1277
2868.96,1244
2868.00,1212
2867.04,1177
2866.07,1141
2865.11,1104
2864.14,1066
2863.18,1027
2862.22,985
2861.25,936
2860.29,886
2859.32,841
2858.36,803
2857.39,769
2856.43,730
2855.47,685
2854.50,644
2853.54,610
2852.57,571
2851.61,527
2850.64,484
2849.68,447
2848.72,409
2847.75,365
2846.79,327
2845.82,302
2844.86,281
2843.89,257
2842.93,234
2841.97,214
2841.00,195
2840.04,177
2839.07,161
2838.11,148
2837.15,132
2836.18,116
2835.22,104
2834.25,98
2833.29,91
2832.32,82
2831.36,80
2830.40,87
2829.43,86
2828.47,73
2827.50,62
2826.54,56
2825.57,52
2824.61,46
2823.65,41
2822.68,41
2821.72,43
2820.75,41
2819.79,36
2818.82,31
2817.86,22
2816.90,13
2815.93,8
2814.97,9
2814.00,13
2813.04,11
2812.08,3
2811.11,-5
2810.15,-6
2809.18,0
2808.22,5
2807.25,2
2806.29,-4
2805.33,-6
2804.36,-9
2803.40,-15
2802.43,-18
2801.47,-16
2800.50,-13
2799.54,-12
2798.58,-11
2797.61,-12
2796.65,-12
2795.68,-8
2794.72,-4
2793.75,-4
2792.79,-3
2791.83,2
2790.86,4
2789.90,1
2788.93,1
2787.97,11
2787.00,21
2786.04,25
2785.08,28
2784.11,33
2783.15,34
2782.18,29
2781.22,24
2780.26,24
2779.29,25
2778.33,22
2777.36,21
2776.40,26
2775.43,27
2774.47,19
2773.51,14
2772.54,15
2771.58,13
2770.61,8
2769.65,1
2768.68,-2
2767.72,0
2766.76,2
2765.79,1
2764.83,-3
2763.86,-4
2762.90,3
2761.93,11
2760.97,9
2760.01,7
2759.04,11
2758.08,17
2757.11,24
2756.15,27
2755.19,18
2754.22,12
2753.26,20
2752.29,32
2751.33,43
2750.36,52
2749.40,61
2748.44,66
2747.47,62
2746.51,52
2745.54,46
2744.58,43
2743.61,45
2742.65,49
2741.69,47
2740.72,39
2739.76,29
2738.79,19
2737.83,17
2736.86,18
2735.90,15
2734.94,13
2733.97,18
2733.01,27
2732.04,25
2731.08,19
2730.12,17
2729.15,18
2728.19,21
2727.22,23
2726.26,17
2725.29,8
2724.33,9
2723.37,20
2722.40,17
2721.44,2
2720.47,1
2719.51,10
2718.54,14
2717.58,18
2716.62,22
2715.65,22
2714.69,20
2713.72,20
2712.76,17
2711.79,13
2710.83,11
2709.87,12
2708.90,14
2707.94,12
2706.97,7
2706.01,0
2705.05,-3
2704.08,0
2703.12,5
2702.15,6
2701.19,5
2700.22,5
2699.26,4
2698.30,1
2697.33,1
2696.37,3
2695.40,4
2694.44,1
2693.47,-4
2692.51,-8
2691.55,-8
2690.58,-1
2689.62,5
2688.65,6
2687.69,1
2686.72,-5
2685.76,-7
2684.80,-4
2683.83,1
2682.87,11
2681.90,14
2680.94,7
2679.98,0
2679.01,-2
2678.05,-0
2677.08,5
2676.12,9
2675.15,4
2674.19,-7
2673.23,-8
2672.26,-5
2671.30,-9
2670.33,-12
2669.37,-4
2668.40,3
2667.44,-0
2666.48,-7
2665.51,-7
2664.55,-3
2663.58,-1
2662.62,-2
2661.65,-3
2660.69,-3
2659.73,-2
2658.76,1
2657.80,2
2656.83,1
2655.87,0
2654.91,-2
2653.94,-5
2652.98,-8
2652.01,-8
2651.05,-6
2650.08,-5
2649.12,-5
2648.16,-6
2647.19,-6
2646.23,-6
2645.26,-6
2644.30,-4
2643.33,1
2642.37,10
2641.41,20
2640.44,24
2639.48,16
2638.51,5
2637.55,1
2636.58,1
2635.62,-0
2634.66,-2
2633.69,1
2632.73,3
2631.76,2
2630.80,5
2629.83,12
2628.87,21
2627.91,28
2626.94,28
2625.98,23
2625.01,18
2624.05,20
2623.09,29
2622.12,29
2621.16,21
2620.19,22
2619.23,26
2618.26,25
2617.30,22
2616.34,21
2615.37,20
2614.41,20
2613.44,19
2612.48,17
2611.51,13
2610.55,13
2609.59,18
2608.62,23
2607.66,26
2606.69,24
2605.73,18
2604.76,13
2603.80,7
2602.84,6
2601.87,11
2600.91,15
2599.94,11
2598.98,8
2598.02,8
2597.05,7
2596.09,0
2595.12,-2
2594.16,1
2593.19,4
2592.23,-0
2591.27,-4
2590.30,-2
2589.34,1
2588.37,-2
2587.41,-7
2586.44,-7
2585.48,-5
2584.52,-6
2583.55,-10
2582.59,-15
2581.62,-15
2580.66,-8
2579.69,0
2578.73,-1
2577.77,-10
2576.80,-17
2575.84,-14
2574.87,-12
2573.91,-13
2572.95,-12
2571.98,-11
2571.02,-14
2570.05,-16
2569.09,-13
2568.12,-6
2567.16,2
2566.20,4
2565.23,-1
2564.27,-12
2563.30,-20
2562.34,-16
2561.37,-8
2560.41,-5
2559.45,-5
2558.48,-6
2557.52,-8
2556.55,-12
2555.59,-14
2554.62,-11
2553.66,-8
2552.70,-6
2551.73,-5
2550.77,-7
2549.80,-10
2548.84,-13
2547.88,-15
2546.91,-15
2545.95,-15
2544.98,-13
2544.02,-6
2543.05,-4
2542.09,-8
2541.13,-10
2540.16,-6
2539.20,-5
2538.23,-6
2537.27,-2
2536.30,4
2535.34,8
2534.38,10
2533.41,12
2532.45,10
2531.48,7
2530.52,2
2529.55,0
2528.59,6
2527.63,16
2526.66,22
2525.70,23
2524.73,23
2523.77,21
2522.81,16
2521.84,11
2520.88,12
2519.91,18
2518.95,22
2517.98,22
2517.02,16
2516.06,11
2515.09,10
2514.13,13
2513.16,18
2512.20,21
2511.23,20
2510.27,22
2509.31,19
2508.34,7
2507.38,4
2506.41,16
2505.45,24
2504.48,24
2503.52,21
2502.56,19
2501.59,18
2500.63,20
2499.66,23
2498.70,25
2497.74,27
2496.77,30
2495.81,30
2494.84,31
2493.88,30
2492.91,26
2491.95,22
2490.99,21
2490.02,23
2489.06,27
2488.09,31
2487.13,30
2486.16,27
2485.20,20
2484.24,13
2483.27,13
2482.31,25
2481.34,34
2480.38,33
2479.41,29
2478.45,23
2477.49,18
2476.52,14
2475.56,10
2474.59,10
2473.63,13
2472.66,17
2471.70,19
2470.74,17
2469.77,14
2468.81,12
2467.84,10
2466.88,13
2465.92,18
2464.95,20
2463.99,20
2463.02,21
2462.06,22
2461.09,22
2460.13,19
2459.17,17
2458.20,14
2457.24,10
2456.27,3
2455.31,-0
2454.34,6
2453.38,15
2452.42,23
2451.45,24
2450.49,16
2449.52,9
2448.56,10
2447.59,18
2446.63,22
2445.67,22
2444.70,23
2443.74,27
2442.77,37
2441.81,48
2440.85,53
2439.88,56
2438.92,55
2437.95,50
2436.99,49
2436.02,52
2435.06,52
2434.10,44
2433.13,36
2432.17,38
2431.20,42
2430.24,39
2429.27,32
2428.31,24
2427.35,16
2426.38,12
2425.42,12
2424.45,14
2423.49,15
2422.52,18
2421.56,22
2420.60,26
2419.63,31
2418.67,31
2417.70,28
2416.74,25
2415.78,18
2414.81,7
2413.85,-3
2412.88,-10
2411.92,-9
2410.95,-1
2409.99,8
2409.03,12
2408.06,11
2407.10,8
2406.13,-1
2405.17,-10
2404.20,-8
2403.24,-0
2402.28,5
2401.31,6
2400.35,5
2399.38,6
2398.42,8
2397.45,12
2396.49,13
2395.53,8
2394.56,1
2393.60,-4
2392.63,-7
2391.67,-7
2390.71,-3
2389.74,0
2388.78,4
2387.81,6
2386.85,3
2385.88,1
2384.92,1
2383.96,2
2382.99,5
2382.03,6
2381.06,6
2380.10,11
2379.13,18
2378.17,23
2377.21,25
2376.24,22
2375.28,16
2374.31,8
2373.35,-1
2372.38,-6
2371.42,-5
2370.46,0
2369.49,4
2368.53,6
2367.56,7
2366.60,9
2365.64,9
2364.67,3
2363.71,-2
2362.74,-5
2361.78,-6
2360.81,-5
2359.85,-2
2358.89,-0
2357.92,-3
2356.96,-9
2355.99,-10
2355.03,-6
2354.06,1
2353.10,4
2352.14,2
2351.17,-1
2350.21,-1
2349.24,0
2348.28,2
2347.31,4
2346.35,3
2345.39,-1
2344.42,-6
2343.46,-9
2342.49,-13
2341.53,-15
2340.57,-11
2339.60,-5
2338.64,-1
2337.67,1
2336.71,-2
2335.74,-9
2334.78,-12
2333.82,-11
2332.85,-10
2331.89,-7
2330.92,-4
2329.96,-2
2328.99,4
2328.03,11
2327.07,15
2326.10,18
2325.14,16
2324.17,4
2323.21,-1
2322.24,6
2321.28,9
2320.32,6
2319.35,2
2318.39,-0
2317.42,0
2316.46,6
2315.49,13
2314.53,12
2313.57,8
2312.60,6
2311.64,4
2310.67,1
2309.71,-1
2308.75,-1
2307.78,1
2306.82,2
2305.85,-1
2304.89,-5
2303.92,-7
2302.96,-8
2302.00,-8
2301.03,-9
2300.07,-9
2299.10,-5
2298.14,-1
2297.17,2
2296.21,0
2295.25,-5
2294.28,-10
2293.32,-9
2292.35,-2
2291.39,7
2290.42,11
2289.46,7
2288.50,0
2287.53,-4
2286.57,-3
2285.60,2
2284.64,7
2283.68,7
2282.71,3
2281.75,4
2280.78,7
2279.82,9
2278.85,7
2277.89,3
2276.93,-1
2275.96,-1
2275.00,4
2274.03,9
2273.07,11
2272.10,13
2271.14,15
2270.18,16
2269.21,15
2268.25,11
2267.28,7
2266.32,4
2265.35,5
2264.39,9
2263.43,13
2262.46,12
2261.50,12
2260.53,14
2259.57,17
2258.61,15
2257.64,5
2256.68,-5
2255.71,-10
2254.75,-7
2253.78,1
2252.82,8
2251.86,10
2250.89,10
2249.93,10
2248.96,14
2248.00,20
2247.03,17
2246.07,3
2245.11,-6
2244.14,-6
2243.18,-3
2242.21,2
2241.25,4
2240.28,-0
2239.32,-5
2238.36,-2
2237.39,3
2236.43,3
2235.46,-3
2234.50,-7
2233.54,-4
2232.57,2
2231.61,4
2230.64,7
2229.68,12
2228.71,11
2227.75,5
2226.79,0
2225.82,-2
2224.86,-5
2223.89,-8
2222.93,-9
2221.96,-6
2221.00,1
2220.04,4
2219.07,-2
2218.11,-9
2217.14,-6
2216.18,-1
2215.21,-1
2214.25,3
2213.29,11
2212.32,14
2211.36,10
2210.39,6
2209.43,5
2208.47,3
2207.50,1
2206.54,-0
2205.57,-0
2204.61,3
2203.64,9
2202.68,14
2201.72,18
2200.75,20
2199.79,19
2198.82,14
2197.86,9
2196.89,6
2195.93,6
2194.97,4
2194.00,3
2193.04,3
2192.07,4
2191.11,7
2190.14,10
2189.18,13
2188.22,17
2187.25,20
2186.29,20
2185.32,18
2184.36,14
2183.40,8
2182.43,4
2181.47,1
2180.50,0
2179.54,3
2178.57,8
2177.61,12
2176.65,14
2175.68,13
2174.72,10
2173.75,11
2172.79,11
2171.82,8
2170.86,4
2169.90,5
2168.93,7
2167.97,6
2167.00,2
2166.04,-1
2165.07,-0
2164.11,2
2163.15,5
2162.18,6
2161.22,5
2160.25,5
2159.29,8
2158.32,14
2157.36,18
2156.40,18
2155.43,14
2154.47,9
2153.50,8
2152.54,13
2151.58,15
2150.61,10
2149.65,5
2148.68,6
2147.72,8
2146.75,9
2145.79,9
2144.83,5
2143.86,-1
2142.90,-4
2141.93,-6
2140.97,-9
2140.00,-12
2139.04,-11
2138.08,-5
2137.11,-1
2136.15,-2
2135.18,-6
2134.22,-5
2133.25,-0
2132.29,5
2131.33,7
2130.36,5
2129.40,-0
2128.43,-1
2127.47,5
2126.51,8
2125.54,-0
2124.58,-8
2123.61,-7
2122.65,-5
2121.68,-6
2120.72,-7
2119.76,-9
2118.79,-10
2117.83,-9
2116.86,-9
2115.90,-11
2114.93,-13
2113.97,-12
2113.01,-6
2112.04,1
2111.08,2
2110.11,-0
2109.15,-1
2108.18,-4
2107.22,-10
2106.26,-17
2105.29,-15
2104.33,-7
2103.36,-2
2102.40,-4
2101.44,-2
2100.47,5
2099.51,10
2098.54,7
2097.58,0
2096.61,-5
2095.65,-10
2094.69,-13
2093.72,-15
2092.76,-15
2091.79,-12
2090.83,-8
2089.86,-6
2088.90,-5
2087.94,-4
2086.97,-4
2086.01,-6
2085.04,-6
2084.08,-1
2083.11,6
2082.15,8
2081.19,6
2080.22,3
2079.26,-1
2078.29,0
2077.33,4
2076.37,8
2075.40,8
2074.44,7
2073.47,8
2072.51,9
2071.54,8
2070.58,5
2069.62,2
2068.65,3
2067.69,7
2066.72,10
2065.76,13
2064.79,16
2063.83,17
2062.87,16
2061.90,13
2060.94,12
2059.97,12
2059.01,8
2058.04,2
2057.08,1
2056.12,7
2055.15,12
2054.19,13
2053.22,14
2052.26,9
2051.30,1
2050.33,1
2049.37,4
2048.40,9
2047.44,16
2046.47,21
2045.51,23
2044.55,22
2043.58,20
2042.62,20
2041.65,25
2040.69,31
2039.72,35
2038.76,35
2037.80,26
2036.83,11
2035.87,6
2034.90,9
2033.94,12
2032.97,11
2032.01,11
2031.05,12
2030.08,10
2029.12,7
2028.15,3
2027.19,-3
2026.23,-7
2025.26,-3
2024.30,7
2023.33,10
2022.37,7
2021.40,4
2020.44,3
2019.48,3
2018.51,2
2017.55,1
2016.58,-3
2015.62,-8
2014.65,-10
2013.69,-5
2012.73,2
2011.76,8
2010.80,16
2009.83,22
2008.87,24
2007.90,20
2006.94,13
2005.98,4
2005.01,-4
2004.05,-8
2003.08,-6
2002.12,-1
2001.15,4
2000.19,6
1999.23,4
1998.26,-0
1997.30,-2
1996.33,-0
1995.37,0
1994.41,2
1993.44,3
1992.48,4
1991.51,8
1990.55,14
1989.58,17
1988.62,16
1987.66,15
1986.69,12
1985.73,9
1984.76,12
1983.80,21
1982.83,24
1981.87,19
1980.91,19
1979.94,20
1978.98,16
1978.01,10
1977.05,10
1976.08,13
1975.12,16
1974.16,10
1973.19,2
1972.23,1
1971.26,11
1970.30,22
1969.34,24
1968.37,23
1967.41,25
1966.44,26
1965.48,24
1964.51,21
1963.55,19
1962.59,17
1961.62,18
1960.66,18
1959.69,14
1958.73,6
1957.76,3
1956.80,7
1955.84,14
1954.87,18
1953.91,18
1952.94,16
1951.98,13
1951.01,14
1950.05,19
1949.09,21
1948.12,19
1947.16,14
1946.19,10
1945.23,8
1944.27,9
1943.30,15
1942.34,19
1941.37,20
1940.41,20
1939.44,20
1938.48,18
1937.52,15
1936.55,12
1935.59,9
1934.62,7
1933.66,6
1932.69,6
1931.73,9
1930.77,13
1929.80,14
1928.84,8
1927.87,2
1926.91,1
1925.94,3
1924.98,6
1924.02,12
1923.05,12
1922.09,8
1921.12,4
1920.16,0
1919.20,1
1918.23,9
1917.27,17
1916.30,16
1915.34,10
1914.37,7
1913.41,7
1912.45,2
1911.48,-9
1910.52,-14
1909.55,-12
1908.59,-9
1907.62,-7
1906.66,-7
1905.70,-10
1904.73,-13
1903.77,-13
1902.80,-13
1901.84,-10
1900.87,-5
1899.91,-4
1898.95,-7
1897.98,-9
1897.02,-6
1896.05,-2
1895.09,4
1894.13,7
1893.16,6
1892.20,6
1891.23,4
1890.27,-3
1889.30,-8
1888.34,-9
1887.38,-6
1886.41,1
1885.45,7
1884.48,13
1883.52,14
1882.55,10
1881.59,5
1880.63,4
1879.66,5
1878.70,5
1877.73,9
1876.77,11
1875.80,6
1874.84,0
1873.88,2
1872.91,9
1871.95,15
1870.98,19
1870.02,18
1869.06,10
1868.09,5
1867.13,7
1866.16,8
1865.20,11
1864.23,14
1863.27,14
1862.31,11
1861.34,8
1860.38,7
1859.41,6
1858.45,5
1857.48,5
1856.52,7
1855.56,12
1854.59,17
1853.63,24
1852.66,30
1851.70,27
1850.73,16
1849.77,4
1848.81,-2
1847.84,0
1846.88,9
1845.91,16
1844.95,17
1843.98,19
1843.02,24
1842.06,30
1841.09,29
1840.13,19
1839.16,6
1838.20,-3
1837.24,-2
1836.27,8
1835.31,16
1834.34,15
1833.38,8
1832.41,2
1831.45,-1
1830.49,-1
1829.52,3
1828.56,7
1827.59,8
1826.63,9
1825.66,18
1824.70,30
1823.74,37
1822.77,38
1821.81,36
1820.84,29
1819.88,22
1818.91,20
1817.95,22
1816.99,25
1816.02,26
1815.06,24
1814.09,22
1813.13,24
1812.17,29
1811.20,37
1810.24,46
1809.27,50
1808.31,50
1807.34,48
1806.38,46
1805.42,41
1804.45,37
1803.49,34
1802.52,32
1801.56,30
1800.59,30
1799.63,34
1798.67,40
1797.70,40
1796.74,39
1795.77,39
1794.81,39
1793.84,36
1792.88,35
1791.92,35
1790.95,36
1789.99,38
1789.02,39
1788.06,37
1787.10,33
1786.13,28
1785.17,29
1784.20,39
1783.24,54
1782.27,64
1781.31,68
1780.35,66
1779.38,62
1778.42,62
1777.45,66
1776.49,73
1775.52,79
1774.56,82
1773.60,82
1772.63,82
1771.67,84
1770.70,92
1769.74,103
1768.77,115
1767.81,121
1766.85,120
1765.88,116
1764.92,118
1763.95,125
1762.99,139
1762.03,156
1761.06,164
1760.10,166
1759.13,171
1758.17,177
1757.20,183
1756.24,189
1755.28,201
1754.31,219
1753.35,241
1752.38,259
1751.42,271
1750.45,283
1749.49,307
1748.53,338
1747.56,366
1746.60,394
1745.63,428
1744.67,467
1743.70,510
1742.74,561
1741.78,616
1740.81,675
1739.85,737
1738.88,805
1737.92,879
1736.96,963
1735.99,1060
1735.03,1171
1734.06,1297
1733.10,1439
1732.13,1601
1731.17,1773
1730.21,1951
1729.24,2140
1728.28,2339
1727.31,2539
1726.35,2727
1725.38,2892
1724.42,3050
1723.46,3223
1722.49,3408
1721.53,3596
1720.56,3790
1719.60,3986
1718.63,4178
1717.67,4312
1716.71,4377
1715.74,4343
1714.78,4166
1713.81,3867
1712.85,3475
1711.89,3011
1710.92,2537
1709.96,2103
1708.99,1702
1708.03,1388
1707.06,1131
1706.10,920
1705.14,756
1704.17,629
1703.21,540
1702.24,468
1701.28,414
1700.31,372
1699.35,333
1698.39,299
1697.42,271
1696.46,247
1695.49,225
1694.53,206
1693.56,195
1692.60,185
1691.64,178
1690.67,175
1689.71,172
1688.74,166
1687.78,160
1686.81,157
1685.85,154
1684.89,150
1683.92,143
1682.96,136
1681.99,130
1681.03,127
1680.07,129
1679.10,135
1678.14,141
1677.17,141
1676.21,138
1675.24,143
1674.28,155
1673.32,154
1672.35,143
1671.39,131
1670.42,119
1669.46,106
1668.49,96
1667.53,95
1666.57,103
1665.60,113
1664.64,115
1663.67,108
1662.71,95
1661.74,90
1660.78,95
1659.82,97
1658.85,95
1657.89,102
1656.92,108
1655.96,110
1655.00,111
1654.03,114
1653.07,117
1652.10,122
1651.14,129
1650.17,136
1649.21,142
1648.25,146
1647.28,148
1646.32,147
1645.35,145
1644.39,144
1643.42,143
1642.46,148
1641.50,156
1640.53,162
1639.57,167
1638.60,174
1637.64,186
1636.67,198
1635.71,209
1634.75,220
1633.78,234
1632.82,254
1631.85,281
1630.89,316
1629.93,354
1628.96,397
1628.00,444
1627.03,520
1626.07,621
1625.10,758
1624.14,933
1623.18,1175
1622.21,1508
1621.25,1950
1620.28,2524
1619.32,3235
1618.35,4048
1617.39,4928
1616.43,5805
1615.46,6462
1614.50,6976
1613.53,7076
1612.57,6869
1611.60,6429
1610.64,5754
1609.68,5021
1608.71,4281
1607.75,3579
1606.78,2977
1605.82,2476
1604.86,2062
1603.89,1731
1602.93,1463
1601.96,1231
1601.00,1039
1600.03,856
1599.07,704
1598.11,586
1597.14,502
1596.18,436
1595.21,384
1594.25,337
1593.28,289
1592.32,245
1591.36,209
1590.39,185
1589.43,171
1588.46,161
1587.50,155
1586.53,155
1585.57,158
1584.61,155
1583.64,147
1582.68,145
1581.71,149
1580.75,152
1579.79,157
1578.82,165
1577.86,174
1576.89,177
1575.93,166
1574.96,143
1574.00,118
1573.04,103
1572.07,96
1571.11,91
1570.14,90
1569.18,86
1568.21,78
1567.25,62
1566.29,43
1565.32,29
1564.36,27
1563.39,32
1562.43,35
1561.46,34
1560.50,32
1559.54,33
1558.57,36
1557.61,35
1556.64,34
1555.68,32
1554.72,29
1553.75,27
1552.79,25
1551.82,25
1550.86,25
1549.89,26
1548.93,24
1547.97,18
1547.00,11
1546.04,4
1545.07,-2
1544.11,-3
1543.14,0
1542.18,-0
1541.22,-5
1540.25,-9
1539.29,-9
1538.32,-10
1537.36,-16
1536.39,-20
1535.43,-19
1534.47,-18
1533.50,-12
1532.54,0
1531.57,11
1530.61,16
1529.64,14
1528.68,6
1527.72,-3
1526.75,-5
1525.79,1
1524.82,9
1523.86,12
1522.90,9
1521.93,4
1520.97,-0
1520.00,-5
1519.04,-6
1518.07,-2
1517.11,4
1516.15,8
1515.18,11
1514.22,12
1513.25,10
1512.29,7
1511.32,10
1510.36,18
1509.40,21
1508.43,20
1507.47,23
1506.50,29
1505.54,31
1504.57,31
1503.61,28
1502.65,25
1501.68,28
1500.72,33
1499.75,36
1498.79,34
1497.83,30
1496.86,29
1495.90,37
1494.93,52
1493.97,58
1493.00,53
1492.04,47
1491.08,48
1490.11,57
1489.15,72
1488.18,89
1487.22,102
1486.25,113
1485.29,127
1484.33,143
1483.36,159
1482.40,175
1481.43,196
1480.47,221
1479.50,251
1478.54,283
1477.58,311
1476.61,330
1475.65,347
1474.68,365
1473.72,381
1472.76,392
1471.79,400
1470.83,405
1469.86,411
1468.90,427
1467.93,454
1466.97,484
1466.01,511
1465.04,540
1464.08,579
1463.11,635
1462.15,704
1461.18,781
1460.22,860
1459.26,917
1458.29,970
1457.33,1005
1456.36,1016
1455.40,1002
1454.43,962
1453.47,910
1452.51,869
1451.54,849
1450.58,844
1449.61,846
1448.65,855
1447.69,866
1446.72,872
1445.76,867
1444.79,861
1443.83,856
1442.86,849
1441.90,838
1440.94,823
1439.97,794
1439.01,750
1438.04,702
1437.08,667
1436.11,646
1435.15,625
1434.19,594
1433.22,557
1432.26,520
1431.29,484
1430.33,447
1429.36,415
1428.40,392
1427.44,375
1426.47,363
1425.51,361
1424.54,355
1423.58,342
1422.62,330
1421.65,323
1420.69,321
1419.72,319
1418.76,312
1417.79,297
1416.83,282
1415.87,273
1414.90,271
1413.94,278
1412.97,295
1412.01,310
1411.04,319
1410.08,313
1409.12,290
1408.15,257
1407.19,226
1406.22,205
1405.26,196
1404.29,196
1403.33,197
1402.37,203
1401.40,213
1400.44,225
1399.47,244
1398.51,268
1397.55,292
1396.58,309
1395.62,320
1394.65,332
1393.69,342
1392.72,352
1391.76,356
1390.80,349
1389.83,337
1388.87,329
1387.90,326
1386.94,322
1385.97,312
1385.01,300
1384.05,295
1383.08,301
1382.12,312
1381.15,322
1380.19,313
1379.22,288
1378.26,257
1377.30,228
1376.33,202
1375.37,176
1374.40,150
1373.44,130
1372.47,120
1371.51,117
1370.55,116
1369.58,114
1368.62,105
1367.65,95
1366.69,91
1365.73,91
1364.76,92
1363.80,93
1362.83,94
1361.87,88
1360.90,82
1359.94,82
1358.98,86
1358.01,82
1357.05,73
1356.08,64
1355.12,61
1354.15,62
1353.19,66
1352.23,70
1351.26,70
1350.30,66
1349.33,64
1348.37,63
1347.40,62
1346.44,64
1345.48,66
1344.51,68
1343.55,70
1342.58,75
1341.62,77
1340.66,75
1339.69,75
1338.73,82
1337.76,90
1336.80,91
1335.83,87
1334.87,85
1333.91,89
1332.94,96
1331.98,109
1331.01,128
1330.05,147
1329.08,166
1328.12,184
1327.16,200
1326.19,216
1325.23,234
1324.26,255
1323.30,277
1322.33,297
1321.37,318
1320.41,347
1319.44,376
1318.48,406
1317.51,437
1316.55,471
1315.59,512
1314.62,562
1313.66,625
1312.69,692
1311.73,748
1310.76,794
1309.80,848
1308.84,914
1307.87,987
1306.91,1057
1305.94,1121
1304.98,1184
1304.01,1245
1303.05,1297
1302.09,1348
1301.12,1396
1300.16,1433
1299.19,1465
1298.23,1489
1297.26,1498
1296.30,1491
1295.34,1473
1294.37,1449
1293.41,1437
1292.44,1441
1291.48,1452
1290.52,1474
1289.55,1512
1288.59,1565
1287.62,1633
1286.66,1707
1285.69,1773
1284.73,1827
1283.77,1863
1282.80,1894
1281.84,1932
1280.87,1983
1279.91,2036
1278.94,2080
1277.98,2105
1277.02,2106
1276.05,2079
1275.09,2020
1274.12,1923
1273.16,1798
1272.19,1655
1271.23,1491
1270.27,1322
1269.30,1147
1268.34,986
1267.37,859
1266.41,754
1265.45,666
1264.48,601
1263.52,550
1262.55,503
1261.59,454
1260.62,402
1259.66,355
1258.70,320
1257.73,298
1256.77,281
1255.80,261
1254.84,236
1253.87,213
1252.91,192
1251.95,169
1250.98,147
1250.02,132
1249.05,125
1248.09,122
1247.12,122
1246.16,121
1245.20,118
1244.23,115
1243.27,110
1242.30,101
1241.34,89
1240.38,77
1239.41,69
1238.45,61
1237.48,50
1236.52,43
1235.55,42
1234.59,40
1233.63,36
1232.66,31
1231.70,25
1230.73,14
1229.77,1
1228.80,-10
1227.84,-18
1226.88,-19
1225.91,-13
1224.95,-4
1223.98,0
1223.02,-2
1222.05,1
1221.09,14
1220.13,32
1219.16,36
1218.20,26
1217.23,20
1216.27,20
1215.30,20
1214.34,19
1213.38,17
1212.41,13
1211.45,9
1210.48,7
1209.52,15
1208.56,31
1207.59,47
1206.63,60
1205.66,66
1204.70,71
1203.73,77
1202.77,90
1201.81,102
1200.84,103
1199.88,95
1198.91,85
1197.95,82
1196.98,84
1196.02,89
1195.06,91
1194.09,95
1193.13,100
1192.16,109
1191.20,124
1190.23,146
1189.27,174
1188.31,204
1187.34,240
1186.38,284
1185.41,335
1184.45,379
1183.49,421
1182.52,451
1181.56,473
1180.59,487
1179.63,493
1178.66,495
1177.70,494
1176.74,488
1175.77,476
1174.81,458
1173.84,435
1172.88,403
1171.91,366
1170.95,324
1169.99,278
1169.02,228
1168.06,182
1167.09,139
1166.13,108
1165.16,84
1164.20,63
1163.24,42
1162.27,23
1161.31,8
1160.34,-0
1159.38,-4
1158.42,-6
1157.45,-4
1156.49,-0
1155.52,7
1154.56,14
1153.59,17
1152.63,18
1151.67,20
1150.70,23
1149.74,31
1148.77,49
1147.81,64
1146.84,75
1145.88,81
1144.92,84
1143.95,82
1142.99,78
1142.02,75
1141.06,74
1140.09,76
1139.13,75
1138.17,64
1137.20,44
1136.24,33
1135.27,42
1134.31,62
1133.35,73
1132.38,76
1131.42,83
1130.45,99
1129.49,120
1128.52,140
1127.56,158
1126.60,172
1125.63,188
1124.67,210
1123.70,240
1122.74,273
1121.77,305
1120.81,335
1119.85,369
1118.88,414
1117.92,466
1116.95,513
1115.99,557
1115.02,607
1114.06,664
1113.10,725
1112.13,787
1111.17,849
1110.20,914
1109.24,989
1108.28,1067
1107.31,1129
1106.35,1176
1105.38,1194
1104.42,1182
1103.45,1140
1102.49,1072
1101.53,990
1100.56,919
1099.60,851
1098.63,798
1097.67,750
1096.70,705
1095.74,662
1094.78,621
1093.81,584
1092.85,554
1091.88,540
1090.92,533
1089.95,526
1088.99,513
1088.03,494
1087.06,470
1086.10,441
1085.13,408
1084.17,375
1083.21,340
1082.24,313
1081.28,295
1080.31,280
1079.35,264
1078.38,245
1077.42,230
1076.46,223
1075.49,221
1074.53,216
1073.56,211
1072.60,208
1071.63,210
1070.67,215
1069.71,216
1068.74,222
1067.78,230
1066.81,239
1065.85,251
1064.88,262
1063.92,266
1062.96,257
1061.99,236
1061.03,216
1060.06,206
1059.10,203
1058.13,201
1057.17,200
1056.21,201
1055.24,204
1054.28,203
1053.31,204
1052.35,214
1051.39,221
1050.42,224
1049.46,224
1048.49,222
1047.53,219
1046.56,213
1045.60,207
1044.64,203
1043.67,201
1042.71,198
1041.74,194
1040.78,190
1039.81,189
1038.85,192
1037.89,194
1036.92,185
1035.96,171
1034.99,159
1034.03,145
1033.06,130
1032.10,115
1031.14,107
1030.17,106
1029.21,111
1028.24,118
1027.28,125
1026.32,128
1025.35,127
1024.39,123
1023.42,119
1022.46,113
1021.49,107
1020.53,102
1019.57,94
1018.60,81
1017.64,66
1016.67,52
1015.71,43
1014.74,39
1013.78,32
1012.82,21
1011.85,8
1010.89,-3
1009.92,-9
1008.96,-8
1007.99,-4
1007.03,3
1006.07,9
1005.10,13
1004.14,12
1003.17,7
1002.21,4
1001.25,8
1000.28,14
999.32,12
998.35,7
997.39,3
996.42,0
995.46,2
994.50,11
993.53,23
992.57,29
991.60,29
990.64,29
989.67,29
988.71,27
987.75,26
986.78,28
985.82,32
984.85,35
983.89,39
982.92,41
981.96,43
981.00,45
980.03,44
979.07,42
978.10,46
977.14,59
976.18,70
975.21,75
974.25,74
973.28,70
972.32,67
971.35,68
970.39,87
969.43,113
968.46,130
967.50,134
966.53,129
965.57,127
964.60,133
963.64,149
962.68,172
961.71,194
960.75,208
959.78,211
958.82,208
957.85,203
956.89,202
955.93,210
954.96,222
954.00,230
953.03,236
952.07,245
951.11,255
950.14,267
949.18,275
948.21,278
947.25,280
946.28,281
945.32,282
944.36,284
943.39,287
942.43,289
941.46,296
940.50,308
939.53,322
938.57,335
937.61,349
936.64,368
935.68,384
934.71,379
933.75,370
932.78,374
931.82,389
930.86,401
929.89,402
928.93,395
927.96,389
927.00,387
926.04,388
925.07,392
924.11,398
923.14,403
922.18,405
921.21,407
920.25,411
919.29,412
918.32,402
917.36,384
916.39,368
915.43,364
914.46,369
913.50,379
912.54,386
911.57,391
910.61,394
909.64,398
908.68,404
907.71,414
906.75,424
905.79,434
904.82,440
903.86,441
902.89,441
901.93,444
900.96,448
900.00,441
899.04,438
898.07,436
897.11,431
896.14,427
895.18,431
894.22,450
893.25,481
892.29,517
891.32,555
890.36,601
889.39,659
888.43,728
887.47,799
886.50,866
885.54,937
884.57,1000
883.61,1056
882.64,1100
881.68,1124
880.72,1125
879.75,1088
878.79,1027
877.82,986
876.86,963
875.89,954
874.93,951
873.97,949
873.00,942
872.04,933
871.07,937
870.11,956
869.15,983
868.18,1012
867.22,1043
866.25,1079
865.29,1116
864.32,1165
863.36,1230
862.40,1304
861.43,1381
860.47,1463
859.50,1549
858.54,1622
857.57,1687
856.61,1729
855.65,1734
854.68,1697
853.72,1628
852.75,1522
851.79,1386
850.82,1253
849.86,1125
848.90,1015
847.93,931
846.97,861
846.00,802
845.04,753
844.08,709
843.11,677
842.15,655
841.18,636
840.22,617
839.25,600
838.29,583
837.33,559
836.36,518
835.40,469
834.43,438
833.47,463
832.50,509
831.54,507
830.58,490
829.61,480
828.65,478
827.68,472
826.72,461
825.75,449
824.79,438
823.83,431
822.86,427
821.90,425
820.93,421
819.97,414
819.01,407
818.04,402
817.08,399
816.11,401
815.15,409
814.18,422
813.22,439
812.26,453
811.29,463
810.33,477
809.36,497
808.40,519
807.43,530
806.47,533
805.51,531
804.54,524
803.58,514
802.61,509
801.65,513
800.68,530
799.72,567
798.76,602
797.79,613
796.83,597
795.86,554
794.90,477
793.94,383
792.97,317
792.01,253
791.04,202
790.08,167
789.11,142
788.15,122
787.19,113
786.22,107
785.26,101
784.29,93
783.33,85
782.36,78
781.40,75
780.44,74
779.47,64
778.51,48
777.54,33
776.58,25
775.61,27
774.65,33
773.69,36
772.72,36
771.76,33
770.79,29
769.83,29
768.87,34
767.90,40
766.94,43
765.97,45
765.01,47
764.04,48
763.08,48
762.12,42
761.15,27
760.19,14
759.22,9
758.26,8
757.29,7
756.33,4
755.37,2
754.40,2
753.44,7
752.47,11
751.51,12
750.54,7
749.58,2
748.62,4
747.65,11
746.69,19
745.72,25
744.76,26
743.79,22
742.83,12
741.87,2
740.90,-2
739.94,0
738.97,4
738.01,6
737.05,12
736.08,20
735.12,26
734.15,30
733.19,34
732.22,36
731.26,34
730.30,28
729.33,23
728.37,23
727.40,25
726.44,24
725.47,15
724.51,2
723.55,-10
722.58,-18
721.62,-19
720.65,-17
719.69,-15
718.72,-15
717.76,-9
716.80,2
715.83,18
714.87,36
713.90,55
712.94,77
711.98,107
711.01,150
710.05,208
709.08,276
708.12,347
707.15,408
706.19,457
705.23,473
704.26,469
703.30,445
702.33,402
701.37,343
700.40,279
699.44,203
698.48,139
697.51,92
696.55,62
695.58,41
694.62,29
693.65,22
692.69,15
691.73,8
690.76,2
689.80,-3
688.83,-12
687.87,-10
686.91,61
685.94,100
684.98,54
684.01,-10
683.05,24
682.08,115
681.12,87
680.16,30
679.19,4
678.23,17
677.26,39
676.30,42
675.33,34
674.37,22
673.41,7
672.44,-6
671.48,-11
670.51,-5
669.55,2
668.58,0
667.62,-4
666.66,-6
665.69,-7
664.73,-5
663.76,5
662.80,16
661.84,22
660.87,25
659.91,25
658.94,25
657.98,22
657.01,19
656.05,19
655.09,22
654.12,29
653.16,35
652.19,41
651.23,42
650.26,36
649.30,30
648.34,27
647.37,29
646.41,33
645.44,40
644.48,50
643.51,61
642.55,72
641.59,86
640.62,106
639.66,150
638.69,236
637.73,368
636.77,555
635.80,800
634.84,1075
633.87,1251
632.91,1383
631.94,1393
630.98,1275
630.02,1068
629.05,826
628.09,522
627.12,317
626.16,209
625.19,158
624.23,122
623.27,87
622.30,64
621.34,46
620.37,35
619.41,29
618.44,25
617.48,25
616.52,28
615.55,34
614.59,39
613.62,41
612.66,40
611.70,34
610.73,27
609.77,27
608.80,31
607.84,38
606.87,45
605.91,50
604.95,52
603.98,50
603.02,45
602.05,38
601.09,30
600.12,24
599.16,19
598.20,16
597.23,15
596.27,14
595.30,11
594.34,4
593.37,-3
592.41,0
591.45,9
590.48,17
589.52,21
588.55,18
587.59,13
586.62,10
585.66,9
584.70,7
583.73,4
582.77,4
581.80,13
580.84,20
579.88,18
578.91,8
577.95,-3
576.98,-2
576.02,11
575.05,21
574.09,27
573.13,27
572.16,24
571.20,20
570.23,12
569.27,3
568.30,-3
567.34,-4
566.38,3
565.41,13
564.45,18
563.48,21
562.52,24
561.55,27
560.59,26
559.63,20
558.66,16
557.70,16
556.73,22
555.77,32
554.81,49
553.84,65
552.88,75
551.91,81
550.95,86
549.98,91
549.02,97
548.06,99
547.09,93
546.13,79
545.16,66
544.20,59
543.23,57
542.27,53
541.31,45
540.34,40
539.38,38
538.41,34
537.45,22
536.48,9
535.52,3
534.56,4
533.59,9
532.63,15
531.66,18
530.70,18
529.74,17
528.77,17
527.81,18
526.84,18
525.88,18
524.91,18
523.95,18
522.99,17
522.02,13
521.06,11
520.09,17
519.13,25
518.16,28
517.20,24
516.24,12
515.27,0
514.31,-5
513.34,-3
512.38,6
511.41,16
510.45,17
509.49,7
508.52,-3
507.56,-4
506.59,4
505.63,17
504.67,28
503.70,32
502.74,30
501.77,25
500.81,19
499.84,17
498.88,16
497.92,13
496.95,11
495.99,10
495.02,8
494.06,6
493.09,4
492.13,5
491.17,6
490.20,9
489.24,15
488.27,26
487.31,38
486.34,50
485.38,59
484.42,63
483.45,63
482.49,59
481.52,57
480.56,51
479.60,38
478.63,21
477.67,10
476.70,10
475.74,8
474.77,3
473.81,-3
472.85,-6
471.88,-2
470.92,4
469.95,7
468.99,7
468.02,4
467.06,-1
466.10,-7
465.13,-8
464.17,-6
463.20,-1
462.24,4
461.27,6
460.31,6
459.35,3
458.38,1
457.42,2
456.45,5
455.49,14
454.53,25
453.56,32
452.60,32
451.63,25
450.67,18
449.70,15
448.74,15
447.78,16
446.81,19
445.85,20
444.88,22
443.92,26
442.95,28
441.99,26
441.03,21
440.06,16
439.10,11
438.13,6
437.17,2
436.20,-0
435.24,-0
434.28,-0
433.31,-3
432.35,-7
431.38,-8
430.42,-6
429.45,-2
428.49,3
427.53,6
426.56,4
425.60,-3
424.63,-10
423.67,-12
422.71,-8
421.74,0
420.78,10
419.81,17
418.85,18
417.88,15
416.92,9
415.96,1
414.99,-5
414.03,-3
413.06,4
412.10,9
411.13,15
410.17,21
409.21,24
408.24,22
407.28,25
406.31,31
405.35,34
404.38,30
403.42,21
402.46,17
401.49,17
400.53,18
399.56,16
398.60,12
397.64,6
396.67,3
395.71,4
394.74,9
393.78,16
392.81,21
391.85,29
390.89,34
389.92,33
388.96,29
387.99,30
387.03,34
386.06,39
385.10,44
384.14,50
383.17,55
382.21,56
381.24,55
380.28,52
379.31,48
378.35,43
377.39,39
376.42,39
375.46,42
374.49,46
373.53,46
372.57,41
371.60,38
370.64,37
369.67,36
368.71,34
367.74,33
366.78,30
365.82,25
364.85,24
363.89,28
362.92,37
361.96,41
360.99,38
360.03,31
359.07,23
358.10,19
357.14,23
356.17,34
355.21,48
354.24,59
353.28,63
352.32,54
351.35,37
350.39,20
349.42,9
348.46,8
347.50,16
346.53,26
345.57,31
344.60,33
343.64,32
342.67,29
341.71,25
340.75,22
339.78,21
338.82,21
337.85,22
336.89,24
335.92,22
334.96,17
334.00,13
333.03,10
332.07,8
331.10,5
330.14,3
329.17,1
328.21,2
327.25,4
326.28,9
325.32,15
324.35,17
323.39,14
322.43,4
321.46,-3
320.50,-2
319.53,-0
318.57,-2
317.60,-9
316.64,-14
315.68,-13
314.71,-9
313.75,-4
312.78,0
311.82,3
310.85,9
309.89,17
308.93,21
307.96,16
307.00,2
306.03,-9
305.07,-10
304.10,1
303.14,20
302.18,40
301.21,56
300.25,70
299.28,82
298.32,92
297.36,98
296.39,111
295.43,128
294.46,146
293.50,161
292.53,168
291.57,167
290.61,168
289.64,172
288.68,179
287.71,188
286.75,197
285.78,211
284.82,227
283.86,245
282.89,263
281.93,277
280.96,293
280.00,315
279.03,341
278.07,368
277.11,386
276.14,405
275.18,419
274.21,430
273.25,437
272.28,438
271.32,430
270.36,415
269.39,395
268.43,370
267.46,342
266.50,311
265.54,280
264.57,253
263.61,229
262.64,209
261.68,194
260.71,183
259.75,175
258.79,168
257.82,158
256.86,143
255.89,128
254.93,114
253.96,106
253.00,104
252.04,104
251.07,104
250.11,102
249.14,96
248.18,89
247.21,82
246.25,77
245.29,71
244.32,66
243.36,59
242.39,54
241.43,50
240.47,47
239.50,44
238.54,40
237.57,33
236.61,33
235.64,40
234.68,50
233.72,54
232.75,55
231.79,70
230.82,103
229.86,144
228.89,175
227.93,190
226.97,199
226.00,199
225.04,189
224.07,169
223.11,134
222.14,95
221.18,68
220.22,61
219.25,64
218.29,69
217.32,81
216.36,94
215.40,106
214.43,113
213.47,116
212.50,123
211.54,135
210.57,152
209.61,172
208.65,187
207.68,191
206.72,184
205.75,168
204.79,150
203.82,140
202.86,134
201.90,130
200.93,124
199.97,116
199.00,108
198.04,98
197.07,89
196.11,80
195.15,72
194.18,60
193.22,49
192.25,38
191.29,29
190.33,24
189.36,20
188.40,15
187.43,9
186.47,1
185.50,-2
184.54,-0
183.58,2
182.61,1
181.65,-4
180.68,-12
179.72,-15
178.75,-12
177.79,-5
176.83,4
175.86,13
174.90,18
173.93,19
172.97,19
172.00,23
171.04,29
170.08,33
169.11,38
168.15,43
167.18,46
166.22,46
165.26,49
164.29,60
163.33,79
162.36,100
161.40,120
160.43,140
159.47,158
158.51,168
157.54,173
156.58,186
155.61,202
154.65,218
153.68,233
152.72,250
151.76,267
150.79,285
149.83,304
148.86,324
147.90,346
146.93,370
145.97,394
145.01,421
144.04,447
143.08,473
142.11,503
141.15,539
140.19,581
139.22,628
138.26,672
137.29,715
136.33,758
135.36,804
134.40,845
133.44,887
132.47,937
131.51,995
130.54,1061
129.58,1132
128.61,1211
127.65,1293
126.69,1376
125.72,1455
124.76,1535
123.79,1619
122.83,1706
121.86,1797
120.90,1896
119.94,1999
118.97,2101
118.01,2205
117.04,2314
116.08,2422
115.11,2515
114.15,2604
113.19,2692
112.22,2783
111.26,2876
110.29,2966
109.33,3051
108.37,3131
107.40,3205
106.44,3272
105.47,3330
104.51,3385
103.54,3438
102.58,3490
101.62,3544
100.65,3600
99.69,3659
98.72,3722
97.76,3786
96.79,3851
95.83,3922
94.87,3998
93.90,4078
92.94,4166
91.97,4257
91.01,4350
90.04,4447
89.08,4550
88.12,4663
87.15,4777
86.19,4891
85.22,5007
84.26,5130
83.30,5261
82.33,5399
81.37,5547
80.40,5707
79.44,5876
78.47,6067
77.51,6275
76.55,6500
