Created As Omnic File,PLAS 241
Raman Shift / cm-1,INT
3418.58,1
3417.61,-2
3416.65,-3
3415.68,-4
3414.72,-2
3413.76,0
3412.79,-5
3411.83,-9
3410.86,-4
3409.90,-0
3408.94,-1
3407.97,0
3407.01,-2
3406.04,-2
3405.08,1
3404.11,4
3403.15,9
3402.19,14
3401.22,12
3400.26,-4
3399.29,-12
3398.33,-3
3397.36,3
3396.40,1
3395.44,-0
3394.47,-0
3393.51,-0
3392.54,-0
3391.58,1
3390.61,3
3389.65,4
3388.69,-1
3387.72,-7
3386.76,-7
3385.79,2
3384.83,8
3383.87,5
3382.90,1
3381.94,-0
3380.97,-3
3380.01,-11
3379.04,-18
3378.08,-17
3377.12,-12
3376.15,-4
3375.19,1
3374.22,4
3373.26,7
3372.29,5
3371.33,-1
3370.37,-8
3369.40,-11
3368.44,-12
3367.47,-13
3366.51,-11
3365.54,-3
3364.58,-1
3363.62,-3
3362.65,-2
3361.69,-0
3360.72,2
3359.76,1
3358.80,-7
3357.83,-12
3356.87,-1
3355.90,6
3354.94,-4
3353.97,-8
3353.01,-3
3352.05,-4
3351.08,-5
3350.12,-1
3349.15,4
3348.19,8
3347.22,12
3346.26,9
3345.30,7
3344.33,10
3343.37,7
3342.40,2
3341.44,1
3340.47,6
3339.51,10
3338.55,9
3337.58,7
3336.62,7
3335.65,2
3334.69,-7
3333.73,-5
3332.76,3
3331.80,11
3330.83,16
3329.87,13
3328.90,3
3327.94,-4
3326.98,-5
3326.01,-4
3325.05,0
3324.08,6
3323.12,5
3322.15,0
3321.19,2
3320.23,7
3319.26,5
3318.30,1
3317.33,2
3316.37,3
3315.40,-1
3314.44,-4
3313.48,-2
3312.51,-2
3311.55,-5
3310.58,-7
3309.62,-3
3308.66,4
3307.69,8
3306.73,6
3305.76,2
3304.80,0
3303.83,2
3302.87,-0
3301.91,-8
3300.94,-5
3299.98,2
3299.01,1
3298.05,0
3297.08,2
3296.12,1
3295.16,-3
3294.19,4
3293.23,19
3292.26,27
3291.30,17
3290.33,2
3289.37,-8
3288.41,-10
3287.44,-11
3286.48,-13
3285.51,-14
3284.55,-8
3283.59,1
3282.62,3
3281.66,0
3280.69,-1
3279.73,2
3278.76,11
3277.80,10
3276.84,-7
3275.87,-19
3274.91,-19
3273.94,-16
3272.98,-16
3272.01,-14
3271.05,-7
3270.09,1
3269.12,7
3268.16,3
3267.19,-6
3266.23,-12
3265.26,-12
3264.30,-9
3263.34,-7
3262.37,-3
3261.41,0
3260.44,-1
3259.48,-4
3258.51,-8
3257.55,-9
3256.59,-5
3255.62,-5
3254.66,-8
3253.69,-7
3252.73,-4
3251.77,-4
3250.80,-7
3249.84,-10
3248.87,-13
3247.91,-16
3246.94,-18
3245.98,-13
3245.02,-11
3244.05,-13
3243.09,-10
3242.12,-1
3241.16,-1
3240.19,-13
3239.23,-15
3238.27,-1
3237.30,10
3236.34,10
3235.37,5
3234.41,-0
3233.44,-3
3232.48,-2
3231.52,-1
3230.55,0
3229.59,2
3228.62,4
3227.66,5
3226.70,5
3225.73,1
3224.77,2
3223.80,11
3222.84,14
3221.87,10
3220.91,8
3219.95,11
3218.98,18
3218.02,24
3217.05,25
3216.09,25
3215.12,29
3214.16,36
3213.20,36
3212.23,30
3211.27,25
3210.30,20
3209.34,24
3208.37,30
3207.41,33
3206.45,31
3205.48,30
3204.52,29
3203.55,35
3202.59,41
3201.63,40
3200.66,38
3199.70,34
3198.73,30
3197.77,27
3196.80,27
3195.84,30
3194.88,30
3193.91,25
3192.95,29
3191.98,39
3191.02,35
3190.05,27
3189.09,26
3188.13,29
3187.16,34
3186.20,39
3185.23,37
3184.27,29
3183.30,23
3182.34,21
3181.38,27
3180.41,33
3179.45,32
3178.48,27
3177.52,20
3176.56,19
3175.59,21
3174.63,22
3173.66,21
3172.70,16
3171.73,13
3170.77,25
3169.81,38
3168.84,35
3167.88,21
3166.91,14
3165.95,12
3164.98,10
3164.02,6
3163.06,-2
3162.09,0
3161.13,20
3160.16,34
3159.20,24
3158.23,11
3157.27,16
3156.31,22
3155.34,17
3154.38,23
3153.41,32
3152.45,24
3151.49,14
3150.52,17
3149.56,27
3148.59,26
3147.63,13
3146.66,16
3145.70,31
3144.74,38
3143.77,38
3142.81,31
3141.84,27
3140.88,35
3139.91,42
3138.95,35
3137.99,27
3137.02,26
3136.06,26
3135.09,24
3134.13,23
3133.16,25
3132.20,26
3131.24,22
3130.27,17
3129.31,16
3128.34,15
3127.38,12
3126.42,7
3125.45,5
3124.49,8
3123.52,8
3122.56,11
3121.59,14
3120.63,8
3119.67,6
3118.70,6
3117.74,4
3116.77,2
3115.81,-1
3114.84,-7
3113.88,-11
3112.92,-5
3111.95,5
3110.99,16
3110.02,22
3109.06,20
3108.09,15
3107.13,8
3106.17,0
3105.20,-2
3104.24,-5
3103.27,-14
3102.31,-13
3101.34,1
3100.38,11
3099.42,16
3098.45,15
3097.49,9
3096.52,12
3095.56,18
3094.60,14
3093.63,3
3092.67,1
3091.70,8
3090.74,7
3089.77,3
3088.81,11
3087.85,19
3086.88,23
3085.92,21
3084.95,14
3083.99,12
3083.02,20
3082.06,27
3081.10,27
3080.13,26
3079.17,27
3078.20,26
3077.24,26
3076.27,31
3075.31,40
3074.35,48
3073.38,49
3072.42,44
3071.45,40
3070.49,43
3069.53,49
3068.56,50
3067.60,46
3066.63,45
3065.67,50
3064.70,46
3063.74,35
3062.78,38
3061.81,44
3060.85,42
3059.88,39
3058.92,44
3057.95,53
3056.99,61
3056.03,61
3055.06,53
3054.10,47
3053.13,49
3052.17,52
3051.20,52
3050.24,49
3049.28,52
3048.31,54
3047.35,47
3046.38,47
3045.42,58
3044.46,61
3043.49,54
3042.53,51
3041.56,60
3040.60,69
3039.63,69
3038.67,71
3037.71,79
3036.74,80
3035.78,74
3034.81,68
3033.85,69
3032.88,73
3031.92,82
3030.96,93
3029.99,97
3029.03,89
3028.06,82
3027.10,88
3026.13,101
3025.17,110
3024.21,112
3023.24,111
3022.28,109
3021.31,112
3020.35,110
3019.39,98
3018.42,99
3017.46,123
3016.49,148
3015.53,159
3014.56,163
3013.60,168
3012.64,175
3011.67,181
3010.71,186
3009.74,190
3008.78,196
3007.81,205
3006.85,214
3005.89,219
3004.92,229
3003.96,244
3002.99,252
3002.03,250
3001.06,256
3000.10,273
2999.14,290
2998.17,302
2997.21,314
2996.24,331
2995.28,350
2994.32,370
2993.35,390
2992.39,403
2991.42,423
2990.46,455
2989.49,490
2988.53,522
2987.57,555
2986.60,586
2985.64,616
2984.67,653
2983.71,698
2982.74,753
2981.78,828
2980.82,915
2979.85,1012
2978.89,1118
2977.92,1231
2976.96,1361
2975.99,1526
2975.03,1719
2974.07,1914
2973.10,2121
2972.14,2359
2971.17,2609
2970.21,2858
2969.25,3119
2968.28,3388
2967.32,3655
2966.35,3904
2965.39,4128
2964.42,4330
2963.46,4516
2962.50,4688
2961.53,4836
2960.57,4936
2959.60,4987
2958.64,4988
2957.67,4982
2956.71,4988
2955.75,5037
2954.78,5145
2953.82,5261
2952.85,5357
2951.89,5404
2950.92,5345
2949.96,5158
2949.00,4813
2948.03,4416
2947.07,3987
2946.10,3571
2945.14,3174
2944.17,2847
2943.21,2607
2942.25,2435
2941.28,2320
2940.32,2259
2939.35,2251
2938.39,2275
2937.43,2329
2936.46,2437
2935.50,2595
2934.53,2777
2933.57,2986
2932.60,3212
2931.64,3449
2930.68,3704
2929.71,3972
2928.75,4220
2927.78,4445
2926.82,4638
2925.85,4789
2924.89,4883
2923.93,4932
2922.96,4935
2922.00,4903
2921.03,4855
2920.07,4791
2919.10,4723
2918.14,4662
2917.18,4619
2916.21,4587
2915.25,4583
2914.28,4615
2913.32,4708
2912.36,4861
2911.39,5083
2910.43,5358
2909.46,5683
2908.50,6044
2907.53,6406
2906.57,6735
2905.61,6979
2904.64,7136
2903.68,7159
2902.71,7097
2901.75,6992
2900.78,6827
2899.82,6648
2898.86,6486
2897.89,6388
2896.93,6351
2895.96,6363
2895.00,6423
2894.03,6546
2893.07,6737
2892.11,6990
2891.14,7298
2890.18,7624
2889.21,7964
2888.25,8311
2887.29,8653
2886.32,8978
2885.36,9260
2884.39,9454
2883.43,9533
2882.46,9492
2881.50,9360
2880.54,9141
2879.57,8845
2878.61,8470
2877.64,8026
2876.68,7570
2875.71,7150
2874.75,6796
2873.79,6521
2872.82,6330
2871.86,6218
2870.89,6197
2869.93,6229
2868.96,6276
2868.00,6325
2867.04,6321
2866.07,6219
2865.11,5962
2864.14,5577
2863.18,5071
2862.22,4501
2861.25,3890
2860.29,3318
2859.32,2863
2858.36,2497
2857.39,2224
2856.43,2016
2855.47,1862
2854.50,1777
2853.54,1753
2852.57,1753
2851.61,1766
2850.64,1817
2849.68,1919
2848.72,2063
2847.75,2237
2846.79,2439
2845.82,2673
2844.86,2942
2843.89,3243
2842.93,3547
2841.97,3839
2841.00,4064
2840.04,4202
2839.07,4229
2838.11,4127
2837.15,3913
2836.18,3598
2835.22,3228
2834.25,2836
2833.29,2432
2832.32,2054
2831.36,1729
2830.40,1477
2829.43,1263
2828.47,1082
2827.50,939
2826.54,835
2825.57,746
2824.61,658
2823.65,587
2822.68,541
2821.72,514
2820.75,491
2819.79,464
2818.82,427
2817.86,386
2816.90,349
2815.93,321
2814.97,307
2814.00,299
2813.04,284
2812.08,262
2811.11,243
2810.15,230
2809.18,220
2808.22,210
2807.25,195
2806.29,176
2805.33,163
2804.36,154
2803.40,145
2802.43,140
2801.47,140
2800.50,138
2799.54,135
2798.58,130
2797.61,125
2796.65,118
2795.68,114
2794.72,108
2793.75,94
2792.79,88
2791.83,94
2790.86,98
2789.90,95
2788.93,90
2787.97,81
2787.00,77
2786.04,83
2785.08,88
2784.11,87
2783.15,80
2782.18,66
2781.22,55
2780.26,54
2779.29,57
2778.33,58
2777.36,60
2776.40,63
2775.43,59
2774.47,51
2773.51,53
2772.54,65
2771.58,73
2770.61,74
2769.65,69
2768.68,70
2767.72,76
2766.76,78
2765.79,77
2764.83,78
2763.86,84
2762.90,96
2761.93,109
2760.97,116
2760.01,124
2759.04,138
2758.08,151
2757.11,156
2756.15,157
2755.19,162
2754.22,171
2753.26,179
2752.29,189
2751.33,200
2750.36,214
2749.40,229
2748.44,239
2747.47,237
2746.51,230
2745.54,229
2744.58,234
2743.61,243
2742.65,255
2741.69,270
2740.72,282
2739.76,295
2738.79,307
2737.83,311
2736.86,316
2735.90,331
2734.94,356
2733.97,375
2733.01,390
2732.04,411
2731.08,432
2730.12,457
2729.15,486
2728.19,517
2727.22,553
2726.26,599
2725.29,649
2724.33,685
2723.37,710
2722.40,725
2721.44,729
2720.47,715
2719.51,690
2718.54,667
2717.58,642
2716.62,608
2715.65,561
2714.69,517
2713.72,482
2712.76,458
2711.79,443
2710.83,431
2709.87,419
2708.90,408
2707.94,390
2706.97,366
2706.01,340
2705.05,310
2704.08,284
2703.12,274
2702.15,272
2701.19,263
2700.22,242
2699.26,218
2698.30,196
2697.33,181
2696.37,175
2695.40,168
2694.44,157
2693.47,147
2692.51,144
2691.55,145
2690.58,144
2689.62,147
2688.65,153
2687.69,153
2686.72,144
2685.76,141
2684.80,146
2683.83,150
2682.87,155
2681.90,155
2680.94,149
2679.98,146
2679.01,145
2678.05,146
2677.08,150
2676.12,154
2675.15,151
2674.19,143
2673.23,131
2672.26,119
2671.30,115
2670.33,116
2669.37,116
2668.40,117
2667.44,119
2666.48,126
2665.51,135
2664.55,143
2663.58,142
2662.62,135
2661.65,136
2660.69,146
2659.73,151
2658.76,153
2657.80,164
2656.83,176
2655.87,182
2654.91,182
2653.94,173
2652.98,161
2652.01,158
2651.05,165
2650.08,169
2649.12,164
2648.16,149
2647.19,130
2646.23,117
2645.26,116
2644.30,113
2643.33,110
2642.37,110
2641.41,110
2640.44,105
2639.48,91
2638.51,71
2637.55,52
2636.58,40
2635.62,34
2634.66,27
2633.69,16
2632.73,5
2631.76,0
2630.80,5
2629.83,20
2628.87,40
2627.91,54
2626.94,52
2625.98,36
2625.01,16
2624.05,6
2623.09,7
2622.12,6
2621.16,0
2620.19,-2
2619.23,-0
2618.26,-0
2617.30,-2
2616.34,1
2615.37,6
2614.41,9
2613.44,11
2612.48,11
2611.51,8
2610.55,8
2609.59,13
2608.62,19
2607.66,20
2606.69,16
2605.73,10
2604.76,6
2603.80,8
2602.84,13
2601.87,19
2600.91,21
2599.94,17
2598.98,14
2598.02,15
2597.05,16
2596.09,19
2595.12,27
2594.16,37
2593.19,44
2592.23,46
2591.27,44
2590.30,39
2589.34,34
2588.37,38
2587.41,44
2586.44,39
2585.48,27
2584.52,30
2583.55,35
2582.59,26
2581.62,20
2580.66,24
2579.69,30
2578.73,37
2577.77,39
2576.80,29
2575.84,14
2574.87,15
2573.91,29
2572.95,38
2571.98,27
2571.02,9
2570.05,-3
2569.09,-2
2568.12,12
2567.16,26
2566.20,27
2565.23,20
2564.27,15
2563.30,12
2562.34,11
2561.37,15
2560.41,20
2559.45,20
2558.48,18
2557.52,16
2556.55,11
2555.59,11
2554.62,18
2553.66,23
2552.70,20
2551.73,14
2550.77,8
2549.80,3
2548.84,-2
2547.88,-4
2546.91,-3
2545.95,0
2544.98,-1
2544.02,-0
2543.05,9
2542.09,20
2541.13,22
2540.16,16
2539.20,10
2538.23,13
2537.27,19
2536.30,16
2535.34,12
2534.38,17
2533.41,23
2532.45,22
2531.48,17
2530.52,10
2529.55,5
2528.59,9
2527.63,17
2526.66,19
2525.70,15
2524.73,11
2523.77,6
2522.81,1
2521.84,-0
2520.88,-3
2519.91,-6
2518.95,4
2517.98,11
2517.02,1
2516.06,-16
2515.09,-19
2514.13,-10
2513.16,7
2512.20,20
2511.23,19
2510.27,9
2509.31,-2
2508.34,-10
2507.38,-9
2506.41,-3
2505.45,-2
2504.48,-5
2503.52,-3
2502.56,4
2501.59,11
2500.63,8
2499.66,-0
2498.70,-4
2497.74,1
2496.77,16
2495.81,32
2494.84,28
2493.88,9
2492.91,-1
2491.95,-3
2490.99,-3
2490.02,0
2489.06,7
2488.09,11
2487.13,4
2486.16,-8
2485.20,-15
2484.24,-7
2483.27,5
2482.31,6
2481.34,3
2480.38,4
2479.41,0
2478.45,-9
2477.49,-15
2476.52,-15
2475.56,-16
2474.59,-22
2473.63,-29
2472.66,-27
2471.70,-23
2470.74,-24
2469.77,-23
2468.81,-23
2467.84,-21
2466.88,-16
2465.92,-11
2464.95,-12
2463.99,-14
2463.02,-12
2462.06,-5
2461.09,-7
2460.13,-22
2459.17,-35
2458.20,-35
2457.24,-32
2456.27,-34
2455.31,-32
2454.34,-22
2453.38,-9
2452.42,0
2451.45,-2
2450.49,-14
2449.52,-27
2448.56,-30
2447.59,-27
2446.63,-25
2445.67,-25
2444.70,-20
2443.74,-4
2442.77,16
2441.81,30
2440.85,30
2439.88,22
2438.92,14
2437.95,8
2436.99,5
2436.02,4
2435.06,2
2434.10,0
2433.13,0
2432.17,0
2431.20,1
2430.24,6
2429.27,10
2428.31,9
2427.35,5
2426.38,-2
2425.42,-10
2424.45,-15
2423.49,-16
2422.52,-16
2421.56,-18
2420.60,-17
2419.63,-15
2418.67,-14
2417.70,-9
2416.74,-6
2415.78,-13
2414.81,-27
2413.85,-43
2412.88,-53
2411.92,-47
2410.95,-28
2409.99,-9
2409.03,-5
2408.06,-17
2407.10,-35
2406.13,-41
2405.17,-32
2404.20,-24
2403.24,-20
2402.28,-13
2401.31,-11
2400.35,-12
2399.38,-8
2398.42,-4
2397.45,-2
2396.49,-0
2395.53,2
2394.56,1
2393.60,-7
2392.63,-13
2391.67,-16
2390.71,-17
2389.74,-19
2388.78,-16
2387.81,-3
2386.85,10
2385.88,14
2384.92,11
2383.96,6
2382.99,-2
2382.03,-8
2381.06,-4
2380.10,8
2379.13,21
2378.17,33
2377.21,43
2376.24,47
2375.28,46
2374.31,37
2373.35,18
2372.38,4
2371.42,4
2370.46,11
2369.49,16
2368.53,16
2367.56,15
2366.60,17
2365.64,21
2364.67,23
2363.71,12
2362.74,-5
2361.78,-9
2360.81,-2
2359.85,7
2358.89,10
2357.92,6
2356.96,-1
2355.99,-0
2355.03,11
2354.06,26
2353.10,29
2352.14,21
2351.17,10
2350.21,1
2349.24,3
2348.28,12
2347.31,21
2346.35,24
2345.39,18
2344.42,7
2343.46,-3
2342.49,-11
2341.53,-13
2340.57,-5
2339.60,5
2338.64,8
2337.67,12
2336.71,20
2335.74,21
2334.78,14
2333.82,6
2332.85,-3
2331.89,-8
2330.92,-1
2329.96,12
2328.99,21
2328.03,18
2327.07,11
2326.10,9
2325.14,11
2324.17,16
2323.21,16
2322.24,6
2321.28,-5
2320.32,-9
2319.35,-5
2318.39,2
2317.42,6
2316.46,6
2315.49,2
2314.53,0
2313.57,3
2312.60,5
2311.64,3
2310.67,0
2309.71,-0
2308.75,-5
2307.78,-14
2306.82,-20
2305.85,-20
2304.89,-18
2303.92,-13
2302.96,-6
2302.00,-3
2301.03,-8
2300.07,-17
2299.10,-22
2298.14,-20
2297.17,-17
2296.21,-14
2295.25,-13
2294.28,-18
2293.32,-20
2292.35,-15
2291.39,-8
2290.42,-6
2289.46,-6
2288.50,-12
2287.53,-25
2286.57,-31
2285.60,-21
2284.64,-9
2283.68,-9
2282.71,-15
2281.75,-11
2280.78,0
2279.82,5
2278.85,2
2277.89,-3
2276.93,-4
2275.96,1
2275.00,8
2274.03,13
2273.07,15
2272.10,15
2271.14,14
2270.18,14
2269.21,8
2268.25,-2
2267.28,-7
2266.32,-6
2265.35,-6
2264.39,-6
2263.43,-3
2262.46,3
2261.50,8
2260.53,13
2259.57,19
2258.61,17
2257.64,2
2256.68,-12
2255.71,-18
2254.75,-18
2253.78,-8
2252.82,3
2251.86,7
2250.89,9
2249.93,10
2248.96,22
2248.00,42
2247.03,39
2246.07,10
2245.11,-7
2244.14,-5
2243.18,-1
2242.21,-6
2241.25,-13
2240.28,-9
2239.32,1
2238.36,5
2237.39,3
2236.43,3
2235.46,4
2234.50,-5
2233.54,-14
2232.57,-12
2231.61,-1
2230.64,10
2229.68,17
2228.71,10
2227.75,0
2226.79,-5
2225.82,-8
2224.86,-11
2223.89,-13
2222.93,-12
2221.96,-10
2221.00,-5
2220.04,-4
2219.07,-14
2218.11,-26
2217.14,-25
2216.18,-16
2215.21,-9
2214.25,2
2213.29,9
2212.32,5
2211.36,-7
2210.39,-14
2209.43,-12
2208.47,-8
2207.50,-7
2206.54,-10
2205.57,-12
2204.61,-6
2203.64,4
2202.68,11
2201.72,15
2200.75,20
2199.79,23
2198.82,20
2197.86,15
2196.89,10
2195.93,2
2194.97,-8
2194.00,-17
2193.04,-17
2192.07,-9
2191.11,3
2190.14,13
2189.18,22
2188.22,31
2187.25,33
2186.29,25
2185.32,18
2184.36,22
2183.40,25
2182.43,16
2181.47,0
2180.50,-11
2179.54,-11
2178.57,-5
2177.61,2
2176.65,9
2175.68,11
2174.72,9
2173.75,7
2172.79,6
2171.82,6
2170.86,8
2169.90,8
2168.93,7
2167.97,5
2167.00,3
2166.04,-1
2165.07,-4
2164.11,-0
2163.15,10
2162.18,15
2161.22,10
2160.25,3
2159.29,3
2158.32,8
2157.36,12
2156.40,9
2155.43,2
2154.47,-5
2153.50,-7
2152.54,-3
2151.58,4
2150.61,10
2149.65,10
2148.68,3
2147.72,-2
2146.75,4
2145.79,12
2144.83,17
2143.86,17
2142.90,7
2141.93,-9
2140.97,-18
2140.00,-12
2139.04,-6
2138.08,-6
2137.11,-4
2136.15,4
2135.18,6
2134.22,-2
2133.25,-5
2132.29,4
2131.33,13
2130.36,13
2129.40,4
2128.43,-5
2127.47,-7
2126.51,-3
2125.54,1
2124.58,3
2123.61,0
2122.65,-7
2121.68,-11
2120.72,-12
2119.76,-12
2118.79,-9
2117.83,-1
2116.86,7
2115.90,5
2114.93,-3
2113.97,-8
2113.01,-5
2112.04,-1
2111.08,-2
2110.11,-5
2109.15,1
2108.18,6
2107.22,-4
2106.26,-19
2105.29,-18
2104.33,-5
2103.36,4
2102.40,5
2101.44,6
2100.47,5
2099.51,1
2098.54,-6
2097.58,-16
2096.61,-25
2095.65,-33
2094.69,-37
2093.72,-37
2092.76,-31
2091.79,-19
2090.83,-10
2089.86,-10
2088.90,-14
2087.94,-17
2086.97,-20
2086.01,-23
2085.04,-22
2084.08,-17
2083.11,-13
2082.15,-11
2081.19,-11
2080.22,-14
2079.26,-17
2078.29,-15
2077.33,-8
2076.37,-3
2075.40,-4
2074.44,-7
2073.47,-7
2072.51,-6
2071.54,-13
2070.58,-25
2069.62,-32
2068.65,-27
2067.69,-22
2066.72,-23
2065.76,-23
2064.79,-18
2063.83,-12
2062.87,-8
2061.90,-8
2060.94,-14
2059.97,-20
2059.01,-24
2058.04,-25
2057.08,-27
2056.12,-31
2055.15,-33
2054.19,-26
2053.22,-16
2052.26,-23
2051.30,-38
2050.33,-39
2049.37,-35
2048.40,-26
2047.44,-13
2046.47,-10
2045.51,-18
2044.55,-23
2043.58,-17
2042.62,-6
2041.65,4
2040.69,13
2039.72,12
2038.76,0
2037.80,-5
2036.83,-7
2035.87,-17
2034.90,-23
2033.94,-25
2032.97,-27
2032.01,-25
2031.05,-20
2030.08,-19
2029.12,-28
2028.15,-38
2027.19,-36
2026.23,-24
2025.26,-19
2024.30,-24
2023.33,-25
2022.37,-21
2021.40,-18
2020.44,-18
2019.48,-20
2018.51,-28
2017.55,-35
2016.58,-35
2015.62,-34
2014.65,-35
2013.69,-35
2012.73,-29
2011.76,-19
2010.80,-6
2009.83,2
2008.87,4
2007.90,5
2006.94,3
2005.98,-3
2005.01,-12
2004.05,-24
2003.08,-33
2002.12,-34
2001.15,-29
2000.19,-21
1999.23,-11
1998.26,-7
1997.30,-18
1996.33,-32
1995.37,-33
1994.41,-27
1993.44,-24
1992.48,-23
1991.51,-20
1990.55,-16
1989.58,-14
1988.62,-13
1987.66,-10
1986.69,-7
1985.73,-6
1984.76,-7
1983.80,-5
1982.83,5
1981.87,20
1980.91,26
1979.94,15
1978.98,-7
1978.01,-28
1977.05,-35
1976.08,-30
1975.12,-21
1974.16,-14
1973.19,-11
1972.23,-9
1971.26,-5
1970.30,1
1969.34,-1
1968.37,-4
1967.41,3
1966.44,13
1965.48,9
1964.51,3
1963.55,4
1962.59,7
1961.62,9
1960.66,7
1959.69,-7
1958.73,-26
1957.76,-36
1956.80,-28
1955.84,-13
1954.87,-2
1953.91,2
1952.94,10
1951.98,23
1951.01,24
1950.05,15
1949.09,7
1948.12,3
1947.16,1
1946.19,-2
1945.23,-5
1944.27,-9
1943.30,-9
1942.34,-1
1941.37,13
1940.41,24
1939.44,26
1938.48,20
1937.52,8
1936.55,-3
1935.59,-6
1934.62,-2
1933.66,4
1932.69,9
1931.73,11
1930.77,6
1929.80,1
1928.84,4
1927.87,9
1926.91,1
1925.94,-10
1924.98,-8
1924.02,-1
1923.05,-1
1922.09,-5
1921.12,-3
1920.16,3
1919.20,11
1918.23,19
1917.27,29
1916.30,35
1915.34,32
1914.37,19
1913.41,3
1912.45,-8
1911.48,-11
1910.52,-8
1909.55,-1
1908.59,1
1907.62,-2
1906.66,-10
1905.70,-16
1904.73,-16
1903.77,-14
1902.80,-13
1901.84,-8
1900.87,-1
1899.91,2
1898.95,3
1897.98,9
1897.02,21
1896.05,34
1895.09,35
1894.13,23
1893.16,17
1892.20,19
1891.23,18
1890.27,11
1889.30,3
1888.34,-3
1887.38,-2
1886.41,11
1885.45,27
1884.48,31
1883.52,15
1882.55,-1
1881.59,1
1880.63,9
1879.66,4
1878.70,-4
1877.73,-2
1876.77,0
1875.80,-1
1874.84,3
1873.88,16
1872.91,29
1871.95,37
1870.98,35
1870.02,24
1869.06,7
1868.09,-2
1867.13,8
1866.16,23
1865.20,20
1864.23,4
1863.27,-7
1862.31,-5
1861.34,-0
1860.38,-2
1859.41,-9
1858.45,-14
1857.48,-13
1856.52,-2
1855.56,18
1854.59,32
1853.63,30
1852.66,26
1851.70,25
1850.73,17
1849.77,2
1848.81,-7
1847.84,-5
1846.88,2
1845.91,5
1844.95,2
1843.98,2
1843.02,11
1842.06,24
1841.09,27
1840.13,15
1839.16,-4
1838.20,-16
1837.24,-17
1836.27,-10
1835.31,-0
1834.34,5
1833.38,2
1832.41,-3
1831.45,-10
1830.49,-17
1829.52,-21
1828.56,-23
1827.59,-25
1826.63,-25
1825.66,-15
1824.70,-0
1823.74,8
1822.77,7
1821.81,8
1820.84,7
1819.88,-4
1818.91,-16
1817.95,-19
1816.99,-15
1816.02,-15
1815.06,-19
1814.09,-24
1813.13,-25
1812.17,-23
1811.20,-16
1810.24,-7
1809.27,-4
1808.31,-8
1807.34,-11
1806.38,-9
1805.42,-9
1804.45,-11
1803.49,-12
1802.52,-13
1801.56,-17
1800.59,-19
1799.63,-18
1798.67,-11
1797.70,0
1796.74,13
1795.77,15
1794.81,5
1793.84,0
1792.88,8
1791.92,15
1790.95,11
1789.99,5
1789.02,-3
1788.06,-12
1787.10,-20
1786.13,-22
1785.17,-16
1784.20,-3
1783.24,15
1782.27,28
1781.31,28
1780.35,22
1779.38,15
1778.42,12
1777.45,14
1776.49,18
1775.52,18
1774.56,13
1773.60,8
1772.63,2
1771.67,-3
1770.70,-3
1769.74,1
1768.77,5
1767.81,7
1766.85,12
1765.88,13
1764.92,2
1763.95,-7
1762.99,2
1762.03,19
1761.06,23
1760.10,19
1759.13,14
1758.17,8
1757.20,-2
1756.24,-9
1755.28,-9
1754.31,-9
1753.35,-10
1752.38,-8
1751.42,-6
1750.45,-10
1749.49,-12
1748.53,-6
1747.56,5
1746.60,16
1745.63,22
1744.67,23
1743.70,20
1742.74,16
1741.78,15
1740.81,17
1739.85,18
1738.88,15
1737.92,10
1736.96,3
1735.99,-2
1735.03,-2
1734.06,0
1733.10,7
1732.13,19
1731.17,27
1730.21,33
1729.24,42
1728.28,50
1727.31,52
1726.35,44
1725.38,29
1724.42,10
1723.46,0
1722.49,2
1721.53,11
1720.56,24
1719.60,33
1718.63,30
1717.67,27
1716.71,36
1715.74,44
1714.78,42
1713.81,36
1712.85,35
1711.89,37
1710.92,34
1709.96,26
1708.99,18
1708.03,14
1707.06,13
1706.10,14
1705.14,19
1704.17,26
1703.21,32
1702.24,32
1701.28,29
1700.31,30
1699.35,34
1698.39,38
1697.42,41
1696.46,41
1695.49,32
1694.53,17
1693.56,12
1692.60,21
1691.64,33
1690.67,36
1689.71,32
1688.74,30
1687.78,31
1686.81,34
1685.85,35
1684.89,32
1683.92,25
1682.96,16
1681.99,9
1681.03,5
1680.07,7
1679.10,10
1678.14,16
1677.17,24
1676.21,29
1675.24,30
1674.28,34
1673.32,44
1672.35,49
1671.39,46
1670.42,36
1669.46,19
1668.49,5
1667.53,7
1666.57,25
1665.60,48
1664.64,57
1663.67,47
1662.71,23
1661.74,2
1660.78,-5
1659.82,1
1658.85,10
1657.89,19
1656.92,22
1655.96,19
1655.00,17
1654.03,21
1653.07,30
1652.10,37
1651.14,34
1650.17,23
1649.21,18
1648.25,25
1647.28,30
1646.32,28
1645.35,24
1644.39,25
1643.42,28
1642.46,23
1641.50,15
1640.53,12
1639.57,17
1638.60,25
1637.64,31
1636.67,32
1635.71,36
1634.75,40
1633.78,40
1632.82,33
1631.85,27
1630.89,26
1629.93,21
1628.96,18
1628.00,17
1627.03,7
1626.07,-4
1625.10,-3
1624.14,8
1623.18,21
1622.21,28
1621.25,27
1620.28,22
1619.32,17
1618.35,9
1617.39,1
1616.43,1
1615.46,10
1614.50,23
1613.53,29
1612.57,23
1611.60,12
1610.64,3
1609.68,-1
1608.71,0
1607.75,5
1606.78,12
1605.82,19
1604.86,25
1603.89,31
1602.93,36
1601.96,39
1601.00,34
1600.03,11
1599.07,-13
1598.11,-24
1597.14,-26
1596.18,-18
1595.21,-8
1594.25,-1
1593.28,-1
1592.32,-10
1591.36,-26
1590.39,-40
1589.43,-44
1588.46,-38
1587.50,-28
1586.53,-11
1585.57,6
1584.61,5
1583.64,-10
1582.68,-20
1581.71,-28
1580.75,-34
1579.79,-35
1578.82,-26
1577.86,-11
1576.89,-0
1575.93,-1
1574.96,-12
1574.00,-28
1573.04,-34
1572.07,-30
1571.11,-23
1570.14,-13
1569.18,1
1568.21,10
1567.25,8
1566.29,0
1565.32,-9
1564.36,-19
1563.39,-24
1562.43,-17
1561.46,-6
1560.50,-4
1559.54,-9
1558.57,-10
1557.61,1
1556.64,12
1555.68,15
1554.72,9
1553.75,6
1552.79,8
1551.82,10
1550.86,13
1549.89,19
1548.93,27
1547.97,33
1547.00,34
1546.04,29
1545.07,24
1544.11,30
1543.14,50
1542.18,81
1541.22,111
1540.25,128
1539.29,132
1538.32,133
1537.36,135
1536.39,134
1535.43,117
1534.47,86
1533.50,70
1532.54,66
1531.57,60
1530.61,46
1529.64,27
1528.68,9
1527.72,-1
1526.75,0
1525.79,11
1524.82,21
1523.86,16
1522.90,-0
1521.93,-12
1520.97,-19
1520.00,-22
1519.04,-15
1518.07,0
1517.11,14
1516.15,19
1515.18,11
1514.22,0
1513.25,0
1512.29,17
1511.32,39
1510.36,53
1509.40,62
1508.43,79
1507.47,112
1506.50,143
1505.54,169
1504.57,168
1503.61,140
1502.65,108
1501.68,87
1500.72,73
1499.75,61
1498.79,48
1497.83,33
1496.86,25
1495.90,36
1494.93,54
1493.97,57
1493.00,47
1492.04,35
1491.08,28
1490.11,26
1489.15,34
1488.18,45
1487.22,52
1486.25,61
1485.29,77
1484.33,93
1483.36,100
1482.40,106
1481.43,118
1480.47,133
1479.50,149
1478.54,164
1477.58,182
1476.61,202
1475.65,223
1474.68,244
1473.72,268
1472.76,304
1471.79,350
1470.83,407
1469.86,483
1468.90,590
1467.93,727
1466.97,884
1466.01,1058
1465.04,1251
1464.08,1464
1463.11,1698
1462.15,1935
1461.18,2124
1460.22,2274
1459.26,2352
1458.29,2391
1457.33,2365
1456.36,2267
1455.40,2128
1454.43,1960
1453.47,1773
1452.51,1593
1451.54,1436
1450.58,1300
1449.61,1182
1448.65,1071
1447.69,955
1446.72,834
1445.76,733
1444.79,662
1443.83,614
1442.86,583
1441.90,576
1440.94,598
1439.97,628
1439.01,655
1438.04,696
1437.08,755
1436.11,825
1435.15,877
1434.19,882
1433.22,840
1432.26,744
1431.29,599
1430.33,444
1429.36,318
1428.40,215
1427.44,153
1426.47,122
1425.51,102
1424.54,82
1423.58,57
1422.62,42
1421.65,37
1420.69,35
1419.72,31
1418.76,23
1417.79,10
1416.83,-2
1415.87,-2
1414.90,6
1413.94,2
1412.97,-0
1412.01,6
1411.04,13
1410.08,11
1409.12,-1
1408.15,-16
1407.19,-20
1406.22,-6
1405.26,11
1404.29,13
1403.33,9
1402.37,12
1401.40,17
1400.44,17
1399.47,19
1398.51,30
1397.55,43
1396.58,46
1395.62,41
1394.65,39
1393.69,53
1392.72,79
1391.76,99
1390.80,101
1389.83,98
1388.87,101
1387.90,110
1386.94,113
1385.97,103
1385.01,87
1384.05,82
1383.08,97
1382.12,135
1381.15,180
1380.19,215
1379.22,239
1378.26,259
1377.30,280
1376.33,304
1375.37,324
1374.40,336
1373.44,343
1372.47,346
1371.51,352
1370.55,365
1369.58,371
1368.62,362
1367.65,350
1366.69,360
1365.73,398
1364.76,453
1363.80,528
1362.83,622
1361.87,709
1360.90,802
1359.94,867
1358.98,889
1358.01,871
1357.05,825
1356.08,760
1355.12,678
1354.15,578
1353.19,483
1352.23,427
1351.26,380
1350.30,336
1349.33,305
1348.37,280
1347.40,262
1346.44,257
1345.48,263
1344.51,276
1343.55,294
1342.58,319
1341.62,345
1340.66,371
1339.69,408
1338.73,464
1337.76,532
1336.80,609
1335.83,701
1334.87,824
1333.91,991
1332.94,1190
1331.98,1399
1331.01,1632
1330.05,1797
1329.08,1915
1328.12,1937
1327.16,1848
1326.19,1676
1325.23,1458
1324.26,1217
1323.30,987
1322.33,809
1321.37,662
1320.41,558
1319.44,480
1318.48,412
1317.51,356
1316.55,308
1315.59,265
1314.62,249
1313.66,290
1312.69,360
1311.73,342
1310.76,243
1309.80,165
1308.84,145
1307.87,162
1306.91,190
1305.94,223
1304.98,259
1304.01,281
1303.05,288
1302.09,272
1301.12,245
1300.16,229
1299.19,226
1298.23,236
1297.26,251
1296.30,263
1295.34,266
1294.37,265
1293.41,263
1292.44,252
1291.48,228
1290.52,198
1289.55,168
1288.59,147
1287.62,137
1286.66,139
1285.69,150
1284.73,151
1283.77,128
1282.80,100
1281.84,79
1280.87,72
1279.91,76
1278.94,81
1277.98,78
1277.02,68
1276.05,52
1275.09,34
1274.12,20
1273.16,13
1272.19,8
1271.23,3
1270.27,-2
1269.30,-9
1268.34,-15
1267.37,-15
1266.41,-10
1265.45,-13
1264.48,-15
1263.52,4
1262.55,27
1261.59,39
1260.62,40
1259.66,42
1258.70,58
1257.73,90
1256.77,130
1255.80,167
1254.84,190
1253.87,177
1252.91,143
1251.95,106
1250.98,71
1250.02,39
1249.05,11
1248.09,-12
1247.12,-19
1246.16,-15
1245.20,-11
1244.23,-9
1243.27,-8
1242.30,-10
1241.34,-16
1240.38,-22
1239.41,-25
1238.45,-25
1237.48,-21
1236.52,-9
1235.55,-1
1234.59,-5
1233.63,-6
1232.66,-0
1231.70,6
1230.73,9
1229.77,15
1228.80,32
1227.84,62
1226.88,105
1225.91,156
1224.95,217
1223.98,289
1223.02,368
1222.05,443
1221.09,507
1220.13,566
1219.16,609
1218.20,625
1217.23,598
1216.27,542
1215.30,476
1214.34,404
1213.38,331
1212.41,267
1211.45,214
1210.48,165
1209.52,125
1208.56,102
1207.59,95
1206.63,93
1205.66,85
1204.70,75
1203.73,73
1202.77,80
1201.81,91
1200.84,89
1199.88,78
1198.91,57
1197.95,39
1196.98,29
1196.02,26
1195.06,23
1194.09,18
1193.13,11
1192.16,3
1191.20,-4
1190.23,-4
1189.27,-2
1188.31,-1
1187.34,-3
1186.38,-3
1185.41,-1
1184.45,4
1183.49,13
1182.52,17
1181.56,17
1180.59,26
1179.63,51
1178.66,89
1177.70,129
1176.74,166
1175.77,206
1174.81,268
1173.84,346
1172.88,439
1171.91,550
1170.95,673
1169.99,805
1169.02,926
1168.06,999
1167.09,1046
1166.13,1052
1165.16,1020
1164.20,972
1163.24,912
1162.27,850
1161.31,801
1160.34,776
1159.38,773
1158.42,803
1157.45,862
1156.49,954
1155.52,1075
1154.56,1195
1153.59,1305
1152.63,1392
1151.67,1433
1150.70,1438
1149.74,1368
1148.77,1236
1147.81,1084
1146.84,912
1145.88,745
1144.92,606
1143.95,500
1142.99,408
1142.02,327
1141.06,265
1140.09,217
1139.13,177
1138.17,136
1137.20,98
1136.24,69
1135.27,52
1134.31,44
1133.35,37
1132.38,26
1131.42,14
1130.45,7
1129.49,8
1128.52,14
1127.56,19
1126.60,16
1125.63,7
1124.67,0
1123.70,-1
1122.74,0
1121.77,3
1120.81,9
1119.85,14
1118.88,15
1117.92,17
1116.95,19
1115.99,16
1115.02,16
1114.06,21
1113.10,28
1112.13,36
1111.17,42
1110.20,51
1109.24,67
1108.28,90
1107.31,110
1106.35,127
1105.38,145
1104.42,162
1103.45,167
1102.49,154
1101.53,140
1100.56,127
1099.60,117
1098.63,116
1097.67,113
1096.70,105
1095.74,92
1094.78,75
1093.81,52
1092.85,29
1091.88,22
1090.92,29
1089.95,39
1088.99,42
1088.03,38
1087.06,34
1086.10,36
1085.13,40
1084.17,39
1083.21,36
1082.24,32
1081.28,26
1080.31,19
1079.35,12
1078.38,8
1077.42,3
1076.46,-5
1075.49,-9
1074.53,-3
1073.56,4
1072.60,7
1071.63,6
1070.67,0
1069.71,-13
1068.74,-26
1067.78,-18
1066.81,1
1065.85,19
1064.88,30
1063.92,33
1062.96,30
1061.99,25
1061.03,20
1060.06,21
1059.10,28
1058.13,36
1057.17,44
1056.21,52
1055.24,61
1054.28,61
1053.31,63
1052.35,76
1051.39,99
1050.42,124
1049.46,150
1048.49,176
1047.53,203
1046.56,237
1045.60,282
1044.64,328
1043.67,364
1042.71,393
1041.74,415
1040.78,436
1039.81,459
1038.85,489
1037.89,516
1036.92,524
1035.96,524
1034.99,506
1034.03,469
1033.06,413
1032.10,344
1031.14,270
1030.17,216
1029.21,183
1028.24,158
1027.28,134
1026.32,110
1025.35,89
1024.39,75
1023.42,70
1022.46,68
1021.49,70
1020.53,69
1019.57,62
1018.60,52
1017.64,45
1016.67,41
1015.71,41
1014.74,45
1013.78,47
1012.82,43
1011.85,34
1010.89,26
1009.92,24
1008.96,30
1007.99,44
1007.03,64
1006.07,90
1005.10,118
1004.14,154
1003.17,200
1002.21,258
1001.25,329
1000.28,407
999.32,461
998.35,503
997.39,516
996.42,497
995.46,452
994.50,392
993.53,314
992.57,224
991.60,152
990.64,94
989.67,57
988.71,36
987.75,24
986.78,13
985.82,6
984.85,4
983.89,7
982.92,20
981.96,44
981.00,79
980.03,130
979.07,195
978.10,288
977.14,410
976.18,543
975.21,674
974.25,793
973.28,877
972.32,901
971.35,884
970.39,809
969.43,691
968.46,567
967.50,425
966.53,284
965.57,182
964.60,113
963.64,71
962.68,54
961.71,53
960.75,58
959.78,57
958.82,46
957.85,24
956.89,6
955.93,-3
954.96,-9
954.00,-10
953.03,-7
952.07,1
951.11,14
950.14,31
949.18,52
948.21,73
947.25,93
946.28,114
945.32,139
944.36,170
943.39,207
942.43,241
941.46,273
940.50,306
939.53,329
938.57,334
937.61,317
936.64,274
935.68,209
934.71,156
933.75,110
932.78,87
931.82,85
930.86,87
929.89,85
928.93,79
927.96,67
927.00,53
926.04,45
925.07,50
924.11,60
923.14,66
922.18,57
921.21,47
920.25,50
919.29,55
918.32,50
917.36,37
916.39,22
915.43,12
914.46,8
913.50,11
912.54,14
911.57,11
910.61,3
909.64,-2
908.68,0
907.71,13
906.75,29
905.79,40
904.82,51
903.86,72
902.89,107
901.93,154
900.96,197
900.00,227
899.04,232
898.07,219
897.11,190
896.14,150
895.18,109
894.22,81
893.25,61
892.29,48
891.32,44
890.36,47
889.39,57
888.43,69
887.47,78
886.50,80
885.54,82
884.57,85
883.61,87
882.64,86
881.68,78
880.72,58
879.75,35
878.79,15
877.82,0
876.86,-9
875.89,-10
874.93,-2
873.97,9
873.00,15
872.04,21
871.07,33
870.11,45
869.15,51
868.18,50
867.22,47
866.25,43
865.29,38
864.32,42
863.36,58
862.40,76
861.43,90
860.47,95
859.50,94
858.54,91
857.57,95
856.61,101
855.65,101
854.68,98
853.72,103
852.75,129
851.79,160
850.82,199
849.86,252
848.90,316
847.93,388
846.97,475
846.00,634
845.04,834
844.08,1032
843.11,1239
842.15,1431
841.18,1574
840.22,1663
839.25,1630
838.29,1458
837.33,1230
836.36,996
835.40,779
834.43,604
833.47,537
832.50,526
831.54,481
830.58,445
829.61,424
828.65,411
827.68,396
826.72,361
825.75,319
824.79,294
823.83,286
822.86,290
821.90,300
820.93,311
819.97,323
819.01,342
818.04,375
817.08,429
816.11,512
815.15,638
814.18,826
813.22,1068
812.26,1377
811.29,1735
810.33,2044
809.36,2290
808.40,2462
807.43,2464
806.47,2294
805.51,2018
804.54,1644
803.58,1253
802.61,925
801.65,698
800.68,534
799.72,445
798.76,394
797.79,337
796.83,277
795.86,223
794.90,178
793.94,155
792.97,137
792.01,118
791.04,97
790.08,75
789.11,54
788.15,38
787.19,37
786.22,45
785.26,55
784.29,66
783.33,73
782.36,77
781.40,83
780.44,82
779.47,67
778.51,53
777.54,47
776.58,48
775.61,48
774.65,45
773.69,41
772.72,33
771.76,27
770.79,29
769.83,41
768.87,55
767.90,57
766.94,58
765.97,67
765.01,80
764.04,88
763.08,82
762.12,66
761.15,54
760.19,50
759.22,50
758.26,50
757.29,45
756.33,31
755.37,13
754.40,2
753.44,-0
752.47,2
751.51,4
750.54,5
749.58,5
748.62,7
747.65,14
746.69,22
745.72,27
744.76,28
743.79,26
742.83,18
741.87,6
740.90,0
739.94,6
738.97,24
738.01,41
737.05,43
736.08,33
735.12,31
734.15,42
733.19,59
732.22,67
731.26,60
730.30,48
729.33,48
728.37,60
727.40,74
726.44,84
725.47,82
724.51,69
723.55,53
722.58,40
721.62,32
720.65,30
719.69,33
718.72,37
717.76,37
716.80,36
715.83,38
714.87,42
713.90,43
712.94,39
711.98,34
711.01,32
710.05,32
709.08,36
708.12,46
707.15,60
706.19,70
705.23,73
704.26,72
703.30,72
702.33,74
701.37,78
700.40,73
699.44,56
698.48,43
697.51,38
696.55,42
695.58,51
694.62,61
693.65,70
692.69,74
691.73,73
690.76,74
689.80,75
688.83,71
687.87,88
686.91,205
685.94,251
684.98,160
684.01,42
683.05,80
682.08,213
681.12,167
680.16,69
679.19,13
678.23,20
677.26,51
676.30,61
675.33,60
674.37,55
673.41,41
672.44,25
671.48,15
670.51,15
669.55,14
668.58,13
667.62,18
666.66,22
665.69,22
664.73,22
663.76,29
662.80,34
661.84,36
660.87,37
659.91,37
658.94,35
657.98,25
657.01,11
656.05,3
655.09,1
654.12,4
653.16,8
652.19,13
651.23,18
650.26,19
649.30,13
648.34,4
647.37,-2
646.41,-1
645.44,7
644.48,17
643.51,25
642.55,26
641.59,21
640.62,10
639.66,-7
638.69,-21
637.73,-26
636.77,-19
635.80,-3
634.84,14
633.87,19
632.91,17
631.94,14
630.98,13
630.02,10
629.05,-2
628.09,-15
627.12,-15
626.16,-7
625.19,0
624.23,-4
623.27,-22
622.30,-40
621.34,-46
620.37,-44
619.41,-39
618.44,-34
617.48,-30
616.52,-30
615.55,-32
614.59,-28
613.62,-19
612.66,-14
611.70,-19
610.73,-26
609.77,-27
608.80,-23
607.84,-16
606.87,-11
605.91,-10
604.95,-8
603.98,-2
603.02,1
602.05,2
601.09,-1
600.12,-5
599.16,-9
598.20,-14
597.23,-17
596.27,-18
595.30,-22
594.34,-30
593.37,-38
592.41,-31
591.45,-16
590.48,-2
589.52,0
588.55,-11
587.59,-25
586.62,-32
585.66,-36
584.70,-38
583.73,-38
582.77,-33
581.80,-16
580.84,-3
579.88,0
578.91,-7
577.95,-15
576.98,-13
576.02,0
575.05,16
574.09,28
573.13,32
572.16,26
571.20,14
570.23,4
569.27,-2
568.30,-2
567.34,1
566.38,8
565.41,18
564.45,29
563.48,37
562.52,40
561.55,37
560.59,26
559.63,12
558.66,3
557.70,1
556.73,5
555.77,17
554.81,35
553.84,50
552.88,56
551.91,56
550.95,56
549.98,59
549.02,67
548.06,75
547.09,78
546.13,78
545.16,74
544.20,72
543.23,75
542.27,84
541.31,93
540.34,107
539.38,124
538.41,141
537.45,146
536.48,151
535.52,170
534.56,202
533.59,242
532.63,279
531.66,299
530.70,315
529.74,334
528.77,353
527.81,365
526.84,363
525.88,349
524.91,339
523.95,326
522.99,307
522.02,276
521.06,240
520.09,221
519.13,205
518.16,186
517.20,161
516.24,129
515.27,96
514.31,70
513.34,58
512.38,57
511.41,60
510.45,58
509.49,49
508.52,43
507.56,39
506.59,37
505.63,39
504.67,42
503.70,35
502.74,29
501.77,26
500.81,24
499.84,23
498.88,19
497.92,13
496.95,7
495.99,3
495.02,2
494.06,4
493.09,4
492.13,0
491.17,-4
490.20,-4
489.24,5
488.27,24
487.31,51
486.34,80
485.38,106
484.42,129
483.45,147
482.49,142
481.52,129
480.56,111
479.60,86
478.63,57
477.67,38
476.70,36
475.74,33
474.77,26
473.81,18
472.85,14
471.88,18
470.92,27
469.95,39
468.99,52
468.02,67
467.06,85
466.10,106
465.13,129
464.17,156
463.20,188
462.24,222
461.27,257
460.31,283
459.35,302
458.38,319
457.42,336
456.45,355
455.49,370
454.53,374
453.56,366
452.60,348
451.63,327
450.67,305
449.70,272
448.74,235
447.78,202
446.81,172
445.85,140
444.88,118
443.92,104
442.95,92
441.99,78
441.03,63
440.06,52
439.10,46
438.13,39
437.17,31
436.20,21
435.24,15
434.28,12
433.31,6
432.35,1
431.38,-3
430.42,0
429.45,8
428.49,19
427.53,29
426.56,34
425.60,33
424.63,26
423.67,24
422.71,27
421.74,35
420.78,46
419.81,60
418.85,76
417.88,87
416.92,91
415.96,91
414.99,92
414.03,101
413.06,116
412.10,136
411.13,162
410.17,192
409.21,221
408.24,251
407.28,298
406.31,359
405.35,435
404.38,531
403.42,650
402.46,797
401.49,965
400.53,1130
399.56,1272
398.60,1373
397.64,1410
396.67,1365
395.71,1262
394.74,1121
393.78,953
392.81,748
391.85,599
390.89,467
389.92,352
388.96,261
387.99,206
387.03,171
386.06,152
385.10,140
384.14,128
383.17,114
382.21,96
381.24,78
380.28,59
379.31,43
378.35,30
377.39,21
376.42,18
375.46,22
374.49,28
373.53,30
372.57,26
371.60,22
370.64,20
369.67,17
368.71,10
367.74,2
366.78,-3
365.82,-4
364.85,-1
363.89,6
362.92,16
361.96,23
360.99,23
360.03,16
359.07,8
358.10,4
357.14,9
356.17,25
355.21,46
354.24,63
353.28,72
352.32,66
351.35,45
350.39,24
349.42,13
348.46,15
347.50,28
346.53,42
345.57,47
344.60,50
343.64,53
342.67,60
341.71,65
340.75,64
339.78,63
338.82,63
337.85,65
336.89,69
335.92,76
334.96,83
334.00,87
333.03,86
332.07,83
331.10,84
330.14,89
329.17,100
328.21,119
327.25,146
326.28,174
325.32,200
324.35,222
323.39,240
322.43,257
321.46,273
320.50,286
319.53,290
318.57,284
317.60,265
316.64,241
315.68,217
314.71,190
313.75,167
312.78,150
311.82,135
310.85,123
309.89,111
308.93,96
307.96,74
307.00,47
306.03,22
305.07,9
304.10,10
303.14,22
302.18,35
301.21,40
300.25,37
299.28,29
298.32,17
297.36,5
296.39,3
295.43,7
294.46,13
293.50,18
292.53,22
291.57,25
290.61,20
289.64,12
288.68,4
287.71,0
286.75,1
285.78,4
284.82,6
283.86,7
282.89,8
281.93,12
280.96,15
280.00,15
279.03,10
278.07,2
277.11,2
276.14,7
275.18,6
274.21,1
273.25,-4
272.28,7
271.32,24
270.36,37
269.39,46
268.43,51
267.46,57
266.50,64
265.54,70
264.57,77
263.61,83
262.64,88
261.68,94
260.71,105
259.75,122
258.79,146
257.82,169
256.86,177
255.89,179
254.93,179
253.96,179
253.00,180
252.04,189
251.07,199
250.11,205
249.14,205
248.18,200
247.21,193
246.25,185
245.29,174
244.32,160
243.36,142
242.39,124
241.43,110
240.47,98
239.50,88
238.54,75
237.57,60
236.61,52
235.64,51
234.68,55
233.72,64
232.75,74
231.79,78
230.82,77
229.86,74
228.89,84
227.93,118
226.97,149
226.00,163
225.04,156
224.07,140
223.11,122
222.14,100
221.18,75
220.22,48
219.25,20
218.29,13
217.32,18
216.36,24
215.40,22
214.43,12
213.47,0
212.50,-5
211.54,-2
210.57,10
209.61,29
208.65,41
207.68,40
206.72,29
205.75,12
204.79,2
203.82,7
202.86,18
201.90,30
200.93,39
199.97,45
199.00,49
198.04,52
197.07,56
196.11,63
195.15,74
194.18,85
193.22,93
192.25,100
191.29,106
190.33,116
189.36,127
188.40,139
187.43,152
186.47,167
185.50,192
184.54,222
183.58,256
182.61,289
181.65,321
180.68,355
179.72,387
178.75,422
177.79,461
176.83,500
175.86,536
174.90,558
173.93,568
172.97,569
172.00,566
171.04,556
170.08,533
169.11,500
168.15,458
167.18,413
166.22,373
165.26,339
164.29,311
163.33,290
162.36,268
161.40,239
160.43,209
159.47,181
158.51,158
157.54,139
156.58,119
155.61,100
154.65,83
153.68,71
152.72,68
151.76,61
150.79,50
149.83,37
148.86,28
147.90,27
146.93,26
145.97,23
145.01,19
144.04,12
143.08,6
142.11,3
141.15,2
140.19,4
139.22,7
138.26,16
137.29,27
136.33,35
135.36,35
134.40,21
133.44,6
132.47,-4
131.51,-6
130.54,-0
129.58,13
128.61,32
127.65,51
126.69,68
125.72,76
124.76,75
123.79,77
122.83,89
121.86,115
120.90,152
119.94,186
118.97,218
118.01,256
117.04,304
116.08,356
115.11,423
114.15,505
113.19,594
112.22,680
111.26,761
110.29,847
109.33,938
108.37,1027
107.40,1103
106.44,1140
105.47,1153
104.51,1143
103.54,1113
102.58,1065
101.62,1019
100.65,968
99.69,912
98.72,850
97.76,780
96.79,713
95.83,649
94.87,590
93.90,539
92.94,494
91.97,452
91.01,409
90.04,365
89.08,324
88.12,282
87.15,240
86.19,201
85.22,167
84.26,137
83.30,108
82.33,81
81.37,58
80.40,40
79.44,24
78.47,-2
77.51,-13
76.55,-21
