Created As Omnic File,PLAS 252
Raman Shift / cm-1,INT
3418.58,-34
3417.61,-17
3416.65,-10
3415.68,-9
3414.72,-0
3413.76,9
3412.79,5
3411.83,-6
3410.86,-13
3409.90,-15
3408.94,-7
3407.97,9
3407.01,18
3406.04,10
3405.08,2
3404.11,14
3403.15,37
3402.19,52
3401.22,49
3400.26,26
3399.29,12
3398.33,8
3397.36,3
3396.40,-2
3395.44,0
3394.47,11
3393.51,18
3392.54,21
3391.58,32
3390.61,48
3389.65,50
3388.69,31
3387.72,14
3386.76,14
3385.79,32
3384.83,46
3383.87,36
3382.90,30
3381.94,39
3380.97,38
3380.01,20
3379.04,0
3378.08,-3
3377.12,10
3376.15,34
3375.19,49
3374.22,53
3373.26,53
3372.29,43
3371.33,31
3370.37,15
3369.40,-3
3368.44,-7
3367.47,5
3366.51,5
3365.54,-8
3364.58,2
3363.62,17
3362.65,15
3361.69,5
3360.72,-1
3359.76,1
3358.80,16
3357.83,36
3356.87,47
3355.90,45
3354.94,25
3353.97,11
3353.01,5
3352.05,-5
3351.08,-8
3350.12,6
3349.15,26
3348.19,40
3347.22,46
3346.26,35
3345.30,25
3344.33,40
3343.37,40
3342.40,19
3341.44,11
3340.47,24
3339.51,38
3338.55,34
3337.58,24
3336.62,18
3335.65,13
3334.69,11
3333.73,11
3332.76,13
3331.80,22
3330.83,26
3329.87,13
3328.90,-15
3327.94,-33
3326.98,-30
3326.01,-18
3325.05,4
3324.08,27
3323.12,19
3322.15,-9
3321.19,3
3320.23,37
3319.26,39
3318.30,23
3317.33,17
3316.37,16
3315.40,16
3314.44,21
3313.48,17
3312.51,9
3311.55,5
3310.58,3
3309.62,12
3308.66,29
3307.69,39
3306.73,37
3305.76,28
3304.80,19
3303.83,14
3302.87,13
3301.91,14
3300.94,20
3299.98,32
3299.01,34
3298.05,33
3297.08,36
3296.12,31
3295.16,24
3294.19,42
3293.23,73
3292.26,86
3291.30,63
3290.33,29
3289.37,16
3288.41,19
3287.44,25
3286.48,11
3285.51,-7
3284.55,0
3283.59,25
3282.62,44
3281.66,53
3280.69,47
3279.73,40
3278.76,40
3277.80,31
3276.84,11
3275.87,-5
3274.91,-4
3273.94,4
3272.98,7
3272.01,-0
3271.05,-8
3270.09,-1
3269.12,10
3268.16,5
3267.19,-5
3266.23,0
3265.26,14
3264.30,13
3263.34,7
3262.37,9
3261.41,18
3260.44,27
3259.48,33
3258.51,28
3257.55,21
3256.59,13
3255.62,6
3254.66,4
3253.69,6
3252.73,8
3251.77,7
3250.80,2
3249.84,-1
3248.87,0
3247.91,0
3246.94,2
3245.98,5
3245.02,4
3244.05,11
3243.09,19
3242.12,21
3241.16,14
3240.19,3
3239.23,6
3238.27,21
3237.30,33
3236.34,30
3235.37,19
3234.41,12
3233.44,20
3232.48,36
3231.52,38
3230.55,28
3229.59,20
3228.62,10
3227.66,4
3226.70,3
3225.73,4
3224.77,15
3223.80,29
3222.84,26
3221.87,7
3220.91,2
3219.95,22
3218.98,32
3218.02,22
3217.05,18
3216.09,31
3215.12,44
3214.16,49
3213.20,51
3212.23,48
3211.27,43
3210.30,35
3209.34,25
3208.37,21
3207.41,24
3206.45,31
3205.48,41
3204.52,44
3203.55,32
3202.59,30
3201.63,45
3200.66,57
3199.70,57
3198.73,50
3197.77,42
3196.80,32
3195.84,28
3194.88,33
3193.91,37
3192.95,34
3191.98,26
3191.02,17
3190.05,15
3189.09,22
3188.13,35
3187.16,51
3186.20,62
3185.23,56
3184.27,39
3183.30,36
3182.34,35
3181.38,34
3180.41,38
3179.45,40
3178.48,33
3177.52,21
3176.56,24
3175.59,33
3174.63,22
3173.66,0
3172.70,-11
3171.73,2
3170.77,31
3169.81,51
3168.84,54
3167.88,42
3166.91,26
3165.95,14
3164.98,-5
3164.02,-22
3163.06,-20
3162.09,-1
3161.13,21
3160.16,33
3159.20,24
3158.23,-0
3157.27,-9
3156.31,5
3155.34,33
3154.38,62
3153.41,70
3152.45,43
3151.49,12
3150.52,5
3149.56,14
3148.59,22
3147.63,29
3146.66,32
3145.70,37
3144.74,37
3143.77,29
3142.81,34
3141.84,43
3140.88,42
3139.91,32
3138.95,18
3137.99,13
3137.02,24
3136.06,31
3135.09,30
3134.13,24
3133.16,17
3132.20,19
3131.24,20
3130.27,9
3129.31,-3
3128.34,1
3127.38,15
3126.42,10
3125.45,-4
3124.49,9
3123.52,30
3122.56,35
3121.59,23
3120.63,14
3119.67,20
3118.70,21
3117.74,11
3116.77,-1
3115.81,-9
3114.84,-15
3113.88,-15
3112.92,-9
3111.95,8
3110.99,34
3110.02,48
3109.06,37
3108.09,19
3107.13,-2
3106.17,-21
3105.20,-22
3104.24,-15
3103.27,-15
3102.31,-2
3101.34,18
3100.38,28
3099.42,35
3098.45,28
3097.49,13
3096.52,8
3095.56,8
3094.60,7
3093.63,-0
3092.67,-13
3091.70,-21
3090.74,-21
3089.77,-14
3088.81,-1
3087.85,5
3086.88,2
3085.92,-5
3084.95,-13
3083.99,-8
3083.02,8
3082.06,15
3081.10,2
3080.13,-10
3079.17,-9
3078.20,-13
3077.24,-25
3076.27,-23
3075.31,-10
3074.35,6
3073.38,16
3072.42,6
3071.45,-1
3070.49,11
3069.53,29
3068.56,32
3067.60,16
3066.63,12
3065.67,23
3064.70,21
3063.74,9
3062.78,12
3061.81,18
3060.85,8
3059.88,-5
3058.92,-7
3057.95,3
3056.99,26
3056.03,40
3055.06,25
3054.10,17
3053.13,25
3052.17,34
3051.20,27
3050.24,5
3049.28,-16
3048.31,-24
3047.35,-16
3046.38,3
3045.42,12
3044.46,6
3043.49,0
3042.53,-7
3041.56,-7
3040.60,8
3039.63,23
3038.67,30
3037.71,34
3036.74,36
3035.78,30
3034.81,15
3033.85,1
3032.88,5
3031.92,34
3030.96,53
3029.99,37
3029.03,27
3028.06,29
3027.10,36
3026.13,48
3025.17,54
3024.21,49
3023.24,41
3022.28,36
3021.31,41
3020.35,36
3019.39,14
3018.42,20
3017.46,62
3016.49,100
3015.53,116
3014.56,112
3013.60,102
3012.64,99
3011.67,104
3010.71,106
3009.74,99
3008.78,88
3007.81,79
3006.85,87
3005.89,114
3004.92,138
3003.96,145
3002.99,146
3002.03,154
3001.06,157
3000.10,150
2999.14,154
2998.17,171
2997.21,178
2996.24,179
2995.28,191
2994.32,218
2993.35,246
2992.39,259
2991.42,268
2990.46,290
2989.49,317
2988.53,337
2987.57,358
2986.60,372
2985.64,381
2984.67,405
2983.71,440
2982.74,486
2981.78,536
2980.82,590
2979.85,657
2978.89,735
2977.92,823
2976.96,919
2975.99,1020
2975.03,1133
2974.07,1277
2973.10,1437
2972.14,1596
2971.17,1764
2970.21,1957
2969.25,2174
2968.28,2397
2967.32,2621
2966.35,2830
2965.39,3009
2964.42,3164
2963.46,3316
2962.50,3479
2961.53,3635
2960.57,3748
2959.60,3804
2958.64,3794
2957.67,3736
2956.71,3639
2955.75,3558
2954.78,3522
2953.82,3509
2952.85,3535
2951.89,3563
2950.92,3542
2949.96,3459
2949.00,3287
2948.03,3054
2947.07,2770
2946.10,2479
2945.14,2182
2944.17,1929
2943.21,1744
2942.25,1616
2941.28,1529
2940.32,1468
2939.35,1433
2938.39,1428
2937.43,1452
2936.46,1502
2935.50,1573
2934.53,1672
2933.57,1803
2932.60,1941
2931.64,2077
2930.68,2214
2929.71,2360
2928.75,2515
2927.78,2678
2926.82,2816
2925.85,2911
2924.89,2977
2923.93,3023
2922.96,3031
2922.00,3016
2921.03,2995
2920.07,2962
2919.10,2925
2918.14,2900
2917.18,2895
2916.21,2889
2915.25,2857
2914.28,2824
2913.32,2862
2912.36,2955
2911.39,3082
2910.43,3242
2909.46,3451
2908.50,3701
2907.53,3966
2906.57,4206
2905.61,4371
2904.64,4468
2903.68,4493
2902.71,4481
2901.75,4437
2900.78,4341
2899.82,4240
2898.86,4145
2897.89,4084
2896.93,4055
2895.96,4044
2895.00,4052
2894.03,4111
2893.07,4224
2892.11,4372
2891.14,4567
2890.18,4795
2889.21,5028
2888.25,5256
2887.29,5487
2886.32,5723
2885.36,5948
2884.39,6119
2883.43,6203
2882.46,6213
2881.50,6180
2880.54,6093
2879.57,5962
2878.61,5769
2877.64,5490
2876.68,5168
2875.71,4877
2874.75,4646
2873.79,4463
2872.82,4314
2871.86,4206
2870.89,4166
2869.93,4169
2868.96,4199
2868.00,4257
2867.04,4305
2866.07,4293
2865.11,4169
2864.14,3956
2863.18,3667
2862.22,3313
2861.25,2895
2860.29,2485
2859.32,2153
2858.36,1887
2857.39,1686
2856.43,1528
2855.47,1419
2854.50,1353
2853.54,1302
2852.57,1267
2851.61,1248
2850.64,1252
2849.68,1292
2848.72,1359
2847.75,1435
2846.79,1540
2845.82,1694
2844.86,1875
2843.89,2059
2842.93,2256
2841.97,2471
2841.00,2659
2840.04,2807
2839.07,2868
2838.11,2819
2837.15,2682
2836.18,2477
2835.22,2235
2834.25,1970
2833.29,1694
2832.32,1441
2831.36,1218
2830.40,1024
2829.43,858
2828.47,724
2827.50,616
2826.54,538
2825.57,474
2824.61,415
2823.65,366
2822.68,333
2821.72,324
2820.75,317
2819.79,302
2818.82,279
2817.86,236
2816.90,181
2815.93,147
2814.97,147
2814.00,153
2813.04,130
2812.08,97
2811.11,88
2810.15,92
2809.18,93
2808.22,93
2807.25,83
2806.29,57
2805.33,34
2804.36,19
2803.40,12
2802.43,14
2801.47,29
2800.50,34
2799.54,22
2798.58,12
2797.61,11
2796.65,12
2795.68,22
2794.72,26
2793.75,10
2792.79,0
2791.83,5
2790.86,5
2789.90,2
2788.93,0
2787.97,3
2787.00,15
2786.04,34
2785.08,52
2784.11,65
2783.15,62
2782.18,42
2781.22,18
2780.26,-0
2779.29,-4
2778.33,4
2777.36,15
2776.40,23
2775.43,16
2774.47,6
2773.51,18
2772.54,37
2771.58,46
2770.61,47
2769.65,33
2768.68,14
2767.72,17
2766.76,35
2765.79,39
2764.83,23
2763.86,19
2762.90,52
2761.93,89
2760.97,87
2760.01,78
2759.04,80
2758.08,86
2757.11,102
2756.15,107
2755.19,94
2754.22,91
2753.26,109
2752.29,132
2751.33,140
2750.36,144
2749.40,157
2748.44,163
2747.47,159
2746.51,145
2745.54,119
2744.58,103
2743.61,112
2742.65,132
2741.69,150
2740.72,157
2739.76,160
2738.79,161
2737.83,161
2736.86,162
2735.90,160
2734.94,163
2733.97,190
2733.01,223
2732.04,230
2731.08,226
2730.12,238
2729.15,265
2728.19,297
2727.22,331
2726.26,367
2725.29,395
2724.33,402
2723.37,399
2722.40,411
2721.44,431
2720.47,413
2719.51,380
2718.54,369
2717.58,371
2716.62,369
2715.65,347
2714.69,313
2713.72,279
2712.76,249
2711.79,229
2710.83,211
2709.87,196
2708.90,194
2707.94,186
2706.97,158
2706.01,121
2705.05,82
2704.08,60
2703.12,69
2702.15,89
2701.19,88
2700.22,60
2699.26,28
2698.30,8
2697.33,-0
2696.37,-7
2695.40,-11
2694.44,-15
2693.47,-21
2692.51,-19
2691.55,-15
2690.58,-16
2689.62,-14
2688.65,-3
2687.69,-4
2686.72,-19
2685.76,-19
2684.80,-6
2683.83,-3
2682.87,-18
2681.90,-38
2680.94,-44
2679.98,-33
2679.01,-18
2678.05,-4
2677.08,0
2676.12,-3
2675.15,-10
2674.19,-26
2673.23,-46
2672.26,-64
2671.30,-72
2670.33,-71
2669.37,-71
2668.40,-74
2667.44,-73
2666.48,-63
2665.51,-52
2664.55,-42
2663.58,-31
2662.62,-23
2661.65,-21
2660.69,-17
2659.73,-19
2658.76,-22
2657.80,-1
2656.83,27
2655.87,28
2654.91,8
2653.94,-3
2652.98,9
2652.01,18
2651.05,15
2650.08,22
2649.12,36
2648.16,25
2647.19,-9
2646.23,-22
2645.26,-3
2644.30,10
2643.33,12
2642.37,23
2641.41,34
2640.44,31
2639.48,11
2638.51,-18
2637.55,-33
2636.58,-34
2635.62,-43
2634.66,-57
2633.69,-64
2632.73,-70
2631.76,-68
2630.80,-52
2629.83,-21
2628.87,23
2627.91,63
2626.94,71
2625.98,40
2625.01,-3
2624.05,-21
2623.09,-10
2622.12,-1
2621.16,-3
2620.19,-2
2619.23,4
2618.26,2
2617.30,-3
2616.34,2
2615.37,12
2614.41,13
2613.44,6
2612.48,4
2611.51,9
2610.55,13
2609.59,18
2608.62,21
2607.66,9
2606.69,-0
2605.73,4
2604.76,10
2603.80,17
2602.84,24
2601.87,24
2600.91,17
2599.94,5
2598.98,-7
2598.02,-16
2597.05,-23
2596.09,-18
2595.12,-7
2594.16,-6
2593.19,-7
2592.23,1
2591.27,9
2590.30,7
2589.34,-0
2588.37,-2
2587.41,3
2586.44,9
2585.48,14
2584.52,4
2583.55,-24
2582.59,-51
2581.62,-58
2580.66,-43
2579.69,-22
2578.73,-15
2577.77,-30
2576.80,-54
2575.84,-63
2574.87,-53
2573.91,-29
2572.95,0
2571.98,11
2571.02,-19
2570.05,-63
2569.09,-69
2568.12,-34
2567.16,3
2566.20,10
2565.23,-8
2564.27,-30
2563.30,-43
2562.34,-32
2561.37,-5
2560.41,13
2559.45,10
2558.48,-9
2557.52,-30
2556.55,-36
2555.59,-24
2554.62,-0
2553.66,8
2552.70,-18
2551.73,-54
2550.77,-70
2549.80,-68
2548.84,-62
2547.88,-47
2546.91,-26
2545.95,-9
2544.98,-11
2544.02,-15
2543.05,4
2542.09,28
2541.13,29
2540.16,7
2539.20,-12
2538.23,-3
2537.27,19
2536.30,27
2535.34,22
2534.38,24
2533.41,28
2532.45,26
2531.48,19
2530.52,8
2529.55,0
2528.59,10
2527.63,31
2526.66,43
2525.70,44
2524.73,41
2523.77,31
2522.81,13
2521.84,3
2520.88,-6
2519.91,-12
2518.95,-1
2517.98,-4
2517.02,-13
2516.06,-7
2515.09,14
2514.13,45
2513.16,68
2512.20,57
2511.23,26
2510.27,8
2509.31,1
2508.34,1
2507.38,21
2506.41,44
2505.45,48
2504.48,35
2503.52,29
2502.56,38
2501.59,47
2500.63,41
2499.66,27
2498.70,23
2497.74,33
2496.77,48
2495.81,56
2494.84,45
2493.88,13
2492.91,6
2491.95,22
2490.99,25
2490.02,21
2489.06,34
2488.09,51
2487.13,42
2486.16,12
2485.20,-13
2484.24,-12
2483.27,7
2482.31,22
2481.34,29
2480.38,33
2479.41,28
2478.45,17
2477.49,8
2476.52,-5
2475.56,-18
2474.59,-20
2473.63,-10
2472.66,-5
2471.70,-15
2470.74,-17
2469.77,-5
2468.81,-5
2467.84,-9
2466.88,4
2465.92,20
2464.95,17
2463.99,4
2463.02,1
2462.06,7
2461.09,9
2460.13,4
2459.17,0
2458.20,2
2457.24,-3
2456.27,-26
2455.31,-41
2454.34,-24
2453.38,5
2452.42,27
2451.45,25
2450.49,-1
2449.52,-26
2448.56,-33
2447.59,-27
2446.63,-20
2445.67,-14
2444.70,-9
2443.74,10
2442.77,47
2441.81,75
2440.85,78
2439.88,69
2438.92,51
2437.95,30
2436.99,17
2436.02,9
2435.06,5
2434.10,13
2433.13,27
2432.17,33
2431.20,42
2430.24,60
2429.27,70
2428.31,52
2427.35,19
2426.38,-10
2425.42,-31
2424.45,-38
2423.49,-29
2422.52,-12
2421.56,7
2420.60,33
2419.63,58
2418.67,63
2417.70,52
2416.74,40
2415.78,18
2414.81,-13
2413.85,-37
2412.88,-51
2411.92,-44
2410.95,-12
2409.99,17
2409.03,14
2408.06,-12
2407.10,-46
2406.13,-71
2405.17,-70
2404.20,-41
2403.24,-4
2402.28,12
2401.31,1
2400.35,-14
2399.38,-13
2398.42,-6
2397.45,-1
2396.49,-2
2395.53,-8
2394.56,-21
2393.60,-34
2392.63,-43
2391.67,-56
2390.71,-63
2389.74,-44
2388.78,-12
2387.81,3
2386.85,0
2385.88,-9
2384.92,-18
2383.96,-30
2382.99,-46
2382.03,-60
2381.06,-52
2380.10,-20
2379.13,18
2378.17,45
2377.21,53
2376.24,47
2375.28,37
2374.31,10
2373.35,-33
2372.38,-61
2371.42,-54
2370.46,-27
2369.49,-6
2368.53,0
2367.56,-0
2366.60,2
2365.64,10
2364.67,9
2363.71,-21
2362.74,-60
2361.78,-62
2360.81,-29
2359.85,-6
2358.89,-19
2357.92,-55
2356.96,-88
2355.99,-94
2355.03,-64
2354.06,-22
2353.10,-16
2352.14,-41
2351.17,-44
2350.21,-27
2349.24,-27
2348.28,-27
2347.31,-7
2346.35,12
2345.39,7
2344.42,-13
2343.46,-21
2342.49,-14
2341.53,-9
2340.57,-14
2339.60,-15
2338.64,-9
2337.67,-1
2336.71,0
2335.74,-13
2334.78,-17
2333.82,-18
2332.85,-39
2331.89,-60
2330.92,-49
2329.96,-12
2328.99,23
2328.03,38
2327.07,35
2326.10,28
2325.14,29
2324.17,29
2323.21,28
2322.24,20
2321.28,-1
2320.32,-22
2319.35,-29
2318.39,-22
2317.42,-6
2316.46,14
2315.49,28
2314.53,19
2313.57,-4
2312.60,-11
2311.64,-13
2310.67,-11
2309.71,4
2308.75,10
2307.78,5
2306.82,-1
2305.85,-7
2304.89,-14
2303.92,-16
2302.96,-12
2302.00,-9
2301.03,-21
2300.07,-32
2299.10,-26
2298.14,-20
2297.17,-23
2296.21,-18
2295.25,-17
2294.28,-31
2293.32,-39
2292.35,-19
2291.39,13
2290.42,23
2289.46,5
2288.50,-25
2287.53,-38
2286.57,-27
2285.60,-24
2284.64,-34
2283.68,-27
2282.71,-18
2281.75,-11
2280.78,0
2279.82,8
2278.85,7
2277.89,-3
2276.93,-13
2275.96,-9
2275.00,2
2274.03,2
2273.07,-11
2272.10,-21
2271.14,-4
2270.18,25
2269.21,25
2268.25,6
2267.28,-9
2266.32,-15
2265.35,-4
2264.39,22
2263.43,35
2262.46,24
2261.50,19
2260.53,42
2259.57,71
2258.61,68
2257.64,24
2256.68,-30
2255.71,-59
2254.75,-44
2253.78,6
2252.82,44
2251.86,55
2250.89,55
2249.93,50
2248.96,61
2248.00,86
2247.03,75
2246.07,35
2245.11,18
2244.14,18
2243.18,19
2242.21,15
2241.25,5
2240.28,6
2239.32,22
2238.36,37
2237.39,44
2236.43,43
2235.46,25
2234.50,-8
2233.54,-29
2232.57,-19
2231.61,9
2230.64,38
2229.68,46
2228.71,28
2227.75,13
2226.79,14
2225.82,17
2224.86,17
2223.89,21
2222.93,23
2221.96,14
2221.00,0
2220.04,6
2219.07,19
2218.11,3
2217.14,-24
2216.18,-21
2215.21,13
2214.25,53
2213.29,66
2212.32,42
2211.36,12
2210.39,0
2209.43,3
2208.47,5
2207.50,5
2206.54,3
2205.57,-4
2204.61,-7
2203.64,11
2202.68,36
2201.72,55
2200.75,72
2199.79,80
2198.82,69
2197.86,50
2196.89,33
2195.93,11
2194.97,-23
2194.00,-55
2193.04,-61
2192.07,-38
2191.11,-5
2190.14,22
2189.18,39
2188.22,49
2187.25,51
2186.29,49
2185.32,50
2184.36,50
2183.40,40
2182.43,13
2181.47,-21
2180.50,-45
2179.54,-45
2178.57,-30
2177.61,-11
2176.65,7
2175.68,15
2174.72,8
2173.75,-6
2172.79,-17
2171.82,-24
2170.86,-21
2169.90,-11
2168.93,-1
2167.97,-0
2167.00,-10
2166.04,-21
2165.07,-22
2164.11,-14
2163.15,1
2162.18,9
2161.22,2
2160.25,-13
2159.29,-22
2158.32,-15
2157.36,8
2156.40,24
2155.43,12
2154.47,-16
2153.50,-37
2152.54,-41
2151.58,-36
2150.61,-28
2149.65,-21
2148.68,-6
2147.72,9
2146.75,7
2145.79,3
2144.83,6
2143.86,7
2142.90,-6
2141.93,-30
2140.97,-50
2140.00,-54
2139.04,-51
2138.08,-51
2137.11,-48
2136.15,-41
2135.18,-45
2134.22,-50
2133.25,-35
2132.29,-3
2131.33,27
2130.36,33
2129.40,17
2128.43,-0
2127.47,-3
2126.51,-1
2125.54,-11
2124.58,-21
2123.61,-22
2122.65,-26
2121.68,-28
2120.72,-23
2119.76,-25
2118.79,-23
2117.83,-15
2116.86,-15
2115.90,-27
2114.93,-41
2113.97,-45
2113.01,-30
2112.04,-12
2111.08,-11
2110.11,-17
2109.15,-2
2108.18,15
2107.22,1
2106.26,-22
2105.29,-31
2104.33,-25
2103.36,-12
2102.40,-3
2101.44,7
2100.47,17
2099.51,18
2098.54,6
2097.58,-12
2096.61,-29
2095.65,-44
2094.69,-69
2093.72,-96
2092.76,-85
2091.79,-43
2090.83,-7
2089.86,12
2088.90,7
2087.94,-15
2086.97,-36
2086.01,-40
2085.04,-28
2084.08,-14
2083.11,-5
2082.15,1
2081.19,3
2080.22,-5
2079.26,-16
2078.29,-9
2077.33,13
2076.37,26
2075.40,21
2074.44,7
2073.47,-1
2072.51,-4
2071.54,-10
2070.58,-23
2069.62,-32
2068.65,-26
2067.69,-9
2066.72,8
2065.76,23
2064.79,40
2063.83,54
2062.87,57
2061.90,47
2060.94,27
2059.97,8
2059.01,-5
2058.04,-9
2057.08,-10
2056.12,-12
2055.15,-19
2054.19,-15
2053.22,1
2052.26,4
2051.30,-8
2050.33,-15
2049.37,-15
2048.40,7
2047.44,44
2046.47,65
2045.51,62
2044.55,56
2043.58,60
2042.62,64
2041.65,62
2040.69,65
2039.72,88
2038.76,106
2037.80,85
2036.83,46
2035.87,22
2034.90,19
2033.94,26
2032.97,29
2032.01,38
2031.05,54
2030.08,55
2029.12,31
2028.15,2
2027.19,0
2026.23,27
2025.26,49
2024.30,55
2023.33,52
2022.37,42
2021.40,33
2020.44,32
2019.48,30
2018.51,27
2017.55,26
2016.58,26
2015.62,21
2014.65,13
2013.69,15
2012.73,33
2011.76,67
2010.80,106
2009.83,132
2008.87,139
2007.90,136
2006.94,124
2005.98,96
2005.01,59
2004.05,22
2003.08,-1
2002.12,0
2001.15,21
2000.19,41
1999.23,46
1998.26,34
1997.30,9
1996.33,-14
1995.37,-16
1994.41,-3
1993.44,8
1992.48,16
1991.51,24
1990.55,30
1989.58,29
1988.62,27
1987.66,34
1986.69,47
1985.73,54
1984.76,48
1983.80,44
1982.83,58
1981.87,85
1980.91,96
1979.94,71
1978.98,27
1978.01,-2
1977.05,1
1976.08,28
1975.12,52
1974.16,53
1973.19,32
1972.23,5
1971.26,-7
1970.30,11
1969.34,52
1968.37,78
1967.41,73
1966.44,61
1965.48,57
1964.51,61
1963.55,63
1962.59,60
1961.62,63
1960.66,65
1959.69,45
1958.73,16
1957.76,0
1956.80,-5
1955.84,1
1954.87,30
1953.91,56
1952.94,55
1951.98,42
1951.01,40
1950.05,44
1949.09,48
1948.12,48
1947.16,47
1946.19,45
1945.23,40
1944.27,31
1943.30,28
1942.34,38
1941.37,52
1940.41,62
1939.44,62
1938.48,46
1937.52,20
1936.55,-1
1935.59,-2
1934.62,15
1933.66,33
1932.69,45
1931.73,56
1930.77,58
1929.80,40
1928.84,7
1927.87,-19
1926.91,-18
1925.94,-3
1924.98,8
1924.02,22
1923.05,17
1922.09,-3
1921.12,-5
1920.16,9
1919.20,29
1918.23,54
1917.27,79
1916.30,88
1915.34,71
1914.37,36
1913.41,2
1912.45,-21
1911.48,-26
1910.52,-21
1909.55,-23
1908.59,-28
1907.62,-25
1906.66,-27
1905.70,-42
1904.73,-52
1903.77,-48
1902.80,-36
1901.84,-19
1900.87,-1
1899.91,1
1898.95,-11
1897.98,-14
1897.02,-8
1896.05,0
1895.09,19
1894.13,29
1893.16,20
1892.20,6
1891.23,-5
1890.27,-14
1889.30,-27
1888.34,-43
1887.38,-48
1886.41,-34
1885.45,-9
1884.48,18
1883.52,29
1882.55,8
1881.59,-27
1880.63,-36
1879.66,-18
1878.70,2
1877.73,8
1876.77,-3
1875.80,-17
1874.84,-10
1873.88,23
1872.91,61
1871.95,79
1870.98,62
1870.02,21
1869.06,-13
1868.09,-17
1867.13,8
1866.16,34
1865.20,34
1864.23,13
1863.27,-3
1862.31,-3
1861.34,0
1860.38,-6
1859.41,-14
1858.45,-8
1857.48,12
1856.52,27
1855.56,26
1854.59,33
1853.63,63
1852.66,95
1851.70,96
1850.73,66
1849.77,37
1848.81,29
1847.84,32
1846.88,37
1845.91,43
1844.95,48
1843.98,57
1843.02,73
1842.06,93
1841.09,104
1840.13,82
1839.16,32
1838.20,-10
1837.24,-16
1836.27,9
1835.31,41
1834.34,54
1833.38,50
1832.41,40
1831.45,29
1830.49,14
1829.52,4
1828.56,-2
1827.59,-9
1826.63,-9
1825.66,18
1824.70,57
1823.74,76
1822.77,74
1821.81,59
1820.84,31
1819.88,4
1818.91,0
1817.95,14
1816.99,24
1816.02,22
1815.06,15
1814.09,12
1813.13,18
1812.17,28
1811.20,40
1810.24,45
1809.27,40
1808.31,31
1807.34,30
1806.38,29
1805.42,19
1804.45,12
1803.49,14
1802.52,10
1801.56,-1
1800.59,-14
1799.63,-23
1798.67,-22
1797.70,-8
1796.74,11
1795.77,18
1794.81,7
1793.84,-8
1792.88,-12
1791.92,-11
1790.95,-10
1789.99,-10
1789.02,-17
1788.06,-36
1787.10,-66
1786.13,-95
1785.17,-99
1784.20,-65
1783.24,-19
1782.27,4
1781.31,-2
1780.35,-6
1779.38,0
1778.42,-21
1777.45,-51
1776.49,-48
1775.52,-29
1774.56,-24
1773.60,-36
1772.63,-58
1771.67,-85
1770.70,-100
1769.74,-88
1768.77,-58
1767.81,-37
1766.85,-35
1765.88,-45
1764.92,-59
1763.95,-65
1762.99,-51
1762.03,-29
1761.06,-15
1760.10,-8
1759.13,-13
1758.17,-36
1757.20,-73
1756.24,-101
1755.28,-103
1754.31,-81
1753.35,-48
1752.38,-24
1751.42,-25
1750.45,-43
1749.49,-50
1748.53,-36
1747.56,-10
1746.60,13
1745.63,15
1744.67,-1
1743.70,-8
1742.74,3
1741.78,13
1740.81,6
1739.85,-7
1738.88,-11
1737.92,-12
1736.96,-19
1735.99,-22
1735.03,-16
1734.06,-6
1733.10,8
1732.13,22
1731.17,25
1730.21,21
1729.24,28
1728.28,50
1727.31,71
1726.35,69
1725.38,40
1724.42,-2
1723.46,-30
1722.49,-35
1721.53,-30
1720.56,-15
1719.60,8
1718.63,21
1717.67,19
1716.71,16
1715.74,10
1714.78,-5
1713.81,-17
1712.85,-11
1711.89,9
1710.92,18
1709.96,7
1708.99,-6
1708.03,-4
1707.06,0
1706.10,-9
1705.14,-19
1704.17,-10
1703.21,4
1702.24,7
1701.28,5
1700.31,6
1699.35,7
1698.39,2
1697.42,-6
1696.46,-22
1695.49,-41
1694.53,-47
1693.56,-31
1692.60,-12
1691.64,4
1690.67,6
1689.71,-10
1688.74,-18
1687.78,-14
1686.81,-5
1685.85,3
1684.89,1
1683.92,-16
1682.96,-40
1681.99,-62
1681.03,-74
1680.07,-70
1679.10,-51
1678.14,-28
1677.17,-7
1676.21,6
1675.24,21
1674.28,52
1673.32,67
1672.35,55
1671.39,37
1670.42,13
1669.46,-22
1668.49,-51
1667.53,-47
1666.57,-13
1665.60,25
1664.64,43
1663.67,32
1662.71,-8
1661.74,-49
1660.78,-58
1659.82,-42
1658.85,-23
1657.89,-11
1656.92,-19
1655.96,-39
1655.00,-53
1654.03,-57
1653.07,-51
1652.10,-38
1651.14,-19
1650.17,2
1649.21,18
1648.25,21
1647.28,18
1646.32,21
1645.35,27
1644.39,24
1643.42,17
1642.46,14
1641.50,14
1640.53,7
1639.57,-2
1638.60,-1
1637.64,4
1636.67,9
1635.71,14
1634.75,21
1633.78,21
1632.82,11
1631.85,4
1630.89,1
1629.93,-11
1628.96,-22
1628.00,-34
1627.03,-50
1626.07,-55
1625.10,-44
1624.14,-24
1623.18,-4
1622.21,10
1621.25,10
1620.28,-0
1619.32,-17
1618.35,-34
1617.39,-46
1616.43,-45
1615.46,-39
1614.50,-32
1613.53,-12
1612.57,-7
1611.60,-18
1610.64,-26
1609.68,-32
1608.71,-35
1607.75,-30
1606.78,-12
1605.82,11
1604.86,31
1603.89,42
1602.93,48
1601.96,44
1601.00,17
1600.03,-30
1599.07,-73
1598.11,-89
1597.14,-81
1596.18,-51
1595.21,-14
1594.25,5
1593.28,-6
1592.32,-41
1591.36,-80
1590.39,-102
1589.43,-101
1588.46,-84
1587.50,-62
1586.53,-33
1585.57,-3
1584.61,1
1583.64,-15
1582.68,-34
1581.71,-53
1580.75,-77
1579.79,-93
1578.82,-81
1577.86,-41
1576.89,-2
1575.93,6
1574.96,-22
1574.00,-66
1573.04,-98
1572.07,-104
1571.11,-82
1570.14,-46
1569.18,-31
1568.21,-49
1567.25,-79
1566.29,-105
1565.32,-117
1564.36,-109
1563.39,-81
1562.43,-53
1561.46,-38
1560.50,-35
1559.54,-33
1558.57,-24
1557.61,-8
1556.64,6
1555.68,10
1554.72,4
1553.75,-6
1552.79,-13
1551.82,-16
1550.86,-10
1549.89,4
1548.93,18
1547.97,27
1547.00,25
1546.04,13
1545.07,-10
1544.11,-31
1543.14,-35
1542.18,-28
1541.22,-29
1540.25,-41
1539.29,-58
1538.32,-71
1537.36,-73
1536.39,-60
1535.43,-36
1534.47,-14
1533.50,9
1532.54,37
1531.57,62
1530.61,73
1529.64,61
1528.68,35
1527.72,15
1526.75,18
1525.79,46
1524.82,73
1523.86,72
1522.90,45
1521.93,23
1520.97,10
1520.00,-6
1519.04,-7
1518.07,17
1517.11,49
1516.15,63
1515.18,53
1514.22,28
1513.25,7
1512.29,2
1511.32,14
1510.36,26
1509.40,20
1508.43,-0
1507.47,-1
1506.50,22
1505.54,44
1504.57,46
1503.61,29
1502.65,14
1501.68,18
1500.72,30
1499.75,25
1498.79,-5
1497.83,-36
1496.86,-38
1495.90,-2
1494.93,34
1493.97,31
1493.00,-1
1492.04,-32
1491.08,-48
1490.11,-41
1489.15,-20
1488.18,-5
1487.22,-8
1486.25,-18
1485.29,-15
1484.33,-5
1483.36,0
1482.40,0
1481.43,3
1480.47,14
1479.50,40
1478.54,73
1477.58,95
1476.61,100
1475.65,100
1474.68,104
1473.72,108
1472.76,119
1471.79,136
1470.83,159
1469.86,202
1468.90,279
1467.93,376
1466.97,479
1466.01,588
1465.04,706
1464.08,833
1463.11,972
1462.15,1126
1461.18,1270
1460.22,1388
1459.26,1445
1458.29,1489
1457.33,1500
1456.36,1460
1455.40,1388
1454.43,1289
1453.47,1162
1452.51,1020
1451.54,891
1450.58,795
1449.61,730
1448.65,672
1447.69,592
1446.72,487
1445.76,396
1444.79,344
1443.83,322
1442.86,317
1441.90,333
1440.94,363
1439.97,377
1439.01,359
1438.04,350
1437.08,381
1436.11,446
1435.15,514
1434.19,558
1433.22,566
1432.26,514
1431.29,401
1430.33,271
1429.36,168
1428.40,99
1427.44,73
1426.47,81
1425.51,87
1424.54,66
1423.58,25
1422.62,-4
1421.65,-6
1420.69,18
1419.72,45
1418.76,48
1417.79,18
1416.83,-24
1415.87,-46
1414.90,-53
1413.94,-48
1412.97,-24
1412.01,4
1411.04,21
1410.08,21
1409.12,5
1408.15,-20
1407.19,-38
1406.22,-30
1405.26,-8
1404.29,-0
1403.33,-6
1402.37,-1
1401.40,8
1400.44,6
1399.47,10
1398.51,30
1397.55,49
1396.58,41
1395.62,14
1394.65,-7
1393.69,-1
1392.72,28
1391.76,46
1390.80,35
1389.83,12
1388.87,5
1387.90,15
1386.94,19
1385.97,0
1385.01,-28
1384.05,-33
1383.08,-0
1382.12,44
1381.15,84
1380.19,113
1379.22,126
1378.26,136
1377.30,159
1376.33,193
1375.37,214
1374.40,218
1373.44,219
1372.47,223
1371.51,232
1370.55,246
1369.58,243
1368.62,214
1367.65,182
1366.69,181
1365.73,215
1364.76,260
1363.80,310
1362.83,372
1361.87,444
1360.90,537
1359.94,618
1358.98,664
1358.01,656
1357.05,605
1356.08,537
1355.12,473
1354.15,415
1353.19,361
1352.23,315
1351.26,255
1350.30,212
1349.33,193
1348.37,175
1347.40,159
1346.44,156
1345.48,166
1344.51,177
1343.55,185
1342.58,195
1341.62,209
1340.66,231
1339.69,260
1338.73,291
1337.76,320
1336.80,355
1335.83,404
1334.87,472
1333.91,561
1332.94,670
1331.98,813
1331.01,990
1330.05,1127
1329.08,1237
1328.12,1282
1327.16,1249
1326.19,1151
1325.23,1005
1324.26,830
1323.30,667
1322.33,553
1321.37,462
1320.41,388
1319.44,321
1318.48,256
1317.51,200
1316.55,159
1315.59,139
1314.62,157
1313.66,226
1312.69,312
1311.73,291
1310.76,173
1309.80,80
1308.84,58
1307.87,77
1306.91,101
1305.94,124
1304.98,157
1304.01,191
1303.05,204
1302.09,183
1301.12,148
1300.16,129
1299.19,132
1298.23,144
1297.26,149
1296.30,143
1295.34,141
1294.37,149
1293.41,158
1292.44,151
1291.48,122
1290.52,83
1289.55,52
1288.59,49
1287.62,74
1286.66,107
1285.69,123
1284.73,103
1283.77,41
1282.80,-34
1281.84,-65
1280.87,-43
1279.91,-1
1278.94,33
1277.98,50
1277.02,55
1276.05,54
1275.09,44
1274.12,31
1273.16,28
1272.19,34
1271.23,42
1270.27,45
1269.30,40
1268.34,27
1267.37,17
1266.41,13
1265.45,6
1264.48,9
1263.52,43
1262.55,74
1261.59,78
1260.62,60
1259.66,45
1258.70,52
1257.73,87
1256.77,138
1255.80,190
1254.84,222
1253.87,215
1252.91,186
1251.95,125
1250.98,46
1250.02,-9
1249.05,-15
1248.09,3
1247.12,25
1246.16,41
1245.20,45
1244.23,39
1243.27,32
1242.30,29
1241.34,25
1240.38,16
1239.41,6
1238.45,0
1237.48,4
1236.52,26
1235.55,50
1234.59,57
1233.63,50
1232.66,35
1231.70,20
1230.73,13
1229.77,14
1228.80,11
1227.84,0
1226.88,13
1225.91,64
1224.95,129
1223.98,183
1223.02,224
1222.05,268
1221.09,330
1220.13,402
1219.16,444
1218.20,447
1217.23,417
1216.27,370
1215.30,319
1214.34,264
1213.38,208
1212.41,159
1211.45,118
1210.48,82
1209.52,65
1208.56,69
1207.59,70
1206.63,58
1205.66,48
1204.70,54
1203.73,74
1202.77,100
1201.81,122
1200.84,124
1199.88,102
1198.91,68
1197.95,45
1196.98,40
1196.02,42
1195.06,40
1194.09,33
1193.13,26
1192.16,15
1191.20,2
1190.23,-0
1189.27,1
1188.31,-1
1187.34,-1
1186.38,12
1185.41,30
1184.45,29
1183.49,16
1182.52,9
1181.56,7
1180.59,20
1179.63,55
1178.66,106
1177.70,152
1176.74,178
1175.77,194
1174.81,223
1173.84,264
1172.88,323
1171.91,404
1170.95,496
1169.99,589
1169.02,676
1168.06,743
1167.09,804
1166.13,834
1165.16,839
1164.20,814
1163.24,755
1162.27,679
1161.31,614
1160.34,574
1159.38,553
1158.42,548
1157.45,563
1156.49,611
1155.52,686
1154.56,764
1153.59,832
1152.63,878
1151.67,894
1150.70,888
1149.74,841
1148.77,772
1147.81,691
1146.84,592
1145.88,490
1144.92,406
1143.95,340
1142.99,286
1142.02,251
1141.06,233
1140.09,202
1139.13,157
1138.17,104
1137.20,53
1136.24,15
1135.27,-3
1134.31,-4
1133.35,1
1132.38,-0
1131.42,0
1130.45,12
1129.49,32
1128.52,47
1127.56,45
1126.60,27
1125.63,8
1124.67,0
1123.70,7
1122.74,18
1121.77,26
1120.81,29
1119.85,28
1118.88,30
1117.92,36
1116.95,36
1115.99,24
1115.02,18
1114.06,21
1113.10,34
1112.13,51
1111.17,65
1110.20,69
1109.24,63
1108.28,68
1107.31,93
1106.35,122
1105.38,147
1104.42,158
1103.45,149
1102.49,123
1101.53,105
1100.56,94
1099.60,97
1098.63,112
1097.67,118
1096.70,111
1095.74,100
1094.78,85
1093.81,57
1092.85,24
1091.88,19
1090.92,40
1089.95,62
1088.99,75
1088.03,80
1087.06,80
1086.10,77
1085.13,71
1084.17,64
1083.21,58
1082.24,52
1081.28,45
1080.31,36
1079.35,22
1078.38,9
1077.42,-0
1076.46,3
1075.49,15
1074.53,25
1073.56,29
1072.60,27
1071.63,24
1070.67,18
1069.71,4
1068.74,0
1067.78,13
1066.81,34
1065.85,60
1064.88,79
1063.92,80
1062.96,58
1061.99,22
1061.03,-9
1060.06,-7
1059.10,14
1058.13,31
1057.17,45
1056.21,63
1055.24,80
1054.28,79
1053.31,67
1052.35,71
1051.39,80
1050.42,83
1049.46,88
1048.49,106
1047.53,132
1046.56,154
1045.60,175
1044.64,200
1043.67,222
1042.71,238
1041.74,250
1040.78,265
1039.81,288
1038.85,316
1037.89,338
1036.92,351
1035.96,362
1034.99,355
1034.03,323
1033.06,270
1032.10,206
1031.14,145
1030.17,111
1029.21,94
1028.24,86
1027.28,78
1026.32,65
1025.35,49
1024.39,38
1023.42,38
1022.46,33
1021.49,30
1020.53,46
1019.57,66
1018.60,68
1017.64,45
1016.67,19
1015.71,16
1014.74,33
1013.78,40
1012.82,29
1011.85,2
1010.89,-29
1009.92,-52
1008.96,-54
1007.99,-27
1007.03,11
1006.07,39
1005.10,58
1004.14,74
1003.17,94
1002.21,124
1001.25,170
1000.28,217
999.32,243
998.35,261
997.39,270
996.42,274
995.46,273
994.50,257
993.53,210
992.57,141
991.60,88
990.64,51
989.67,27
988.71,11
987.75,-3
986.78,-17
985.82,-31
984.85,-33
983.89,-28
982.92,-29
981.96,-33
981.00,-33
980.03,-16
979.07,16
978.10,70
977.14,146
976.18,239
975.21,343
974.25,451
973.28,542
972.32,596
971.35,627
970.39,600
969.43,533
968.46,449
967.50,329
966.53,189
965.57,79
964.60,7
963.64,-24
962.68,-18
961.71,5
960.75,23
959.78,22
958.82,2
957.85,-23
956.89,-42
955.93,-53
954.96,-62
954.00,-73
953.03,-80
952.07,-74
951.11,-52
950.14,-18
949.18,2
948.21,8
947.25,16
946.28,28
945.32,45
944.36,64
943.39,83
942.43,90
941.46,90
940.50,108
939.53,149
938.57,193
937.61,211
936.64,182
935.68,118
934.71,61
933.75,13
932.78,5
931.82,30
930.86,55
929.89,54
928.93,36
927.96,17
927.00,7
926.04,1
925.07,-3
924.11,-4
923.14,1
922.18,11
921.21,22
920.25,33
919.29,36
918.32,23
917.36,-2
916.39,-22
915.43,-12
914.46,24
913.50,43
912.54,40
911.57,26
910.61,12
909.64,0
908.68,-10
907.71,-18
906.75,-18
905.79,-14
904.82,-9
903.86,6
902.89,41
901.93,93
900.96,138
900.00,153
899.04,160
898.07,156
897.11,128
896.14,81
895.18,41
894.22,31
893.25,42
892.29,61
891.32,84
890.36,108
889.39,126
888.43,135
887.47,135
886.50,141
885.54,155
884.57,162
883.61,165
882.64,171
881.68,177
880.72,164
879.75,117
878.79,65
877.82,34
876.86,26
875.89,35
874.93,53
873.97,66
873.00,65
872.04,67
871.07,87
870.11,115
869.15,134
868.18,133
867.22,115
866.25,89
865.29,76
864.32,91
863.36,126
862.40,163
861.43,186
860.47,185
859.50,163
858.54,137
857.57,125
856.61,125
855.65,129
854.68,136
853.72,150
852.75,163
851.79,168
850.82,184
849.86,218
848.90,265
847.93,315
846.97,370
846.00,452
845.04,543
844.08,647
843.11,778
842.15,919
841.18,1042
840.22,1136
839.25,1148
838.29,1060
837.33,931
836.36,790
835.40,650
834.43,532
833.47,495
832.50,491
831.54,445
830.58,408
829.61,392
828.65,388
827.68,374
826.72,342
825.75,307
824.79,281
823.83,269
822.86,271
821.90,284
820.93,298
819.97,295
819.01,271
818.04,257
817.08,279
816.11,338
815.15,426
814.18,537
813.22,676
812.26,871
811.29,1097
810.33,1318
809.36,1534
808.40,1719
807.43,1772
806.47,1701
805.51,1530
804.54,1260
803.58,961
802.61,708
801.65,535
800.68,417
799.72,369
798.76,348
797.79,317
796.83,276
795.86,229
794.90,177
793.94,150
792.97,141
792.01,129
791.04,111
790.08,88
789.11,61
788.15,40
787.19,39
786.22,49
785.26,59
784.29,67
783.33,72
782.36,78
781.40,93
780.44,108
779.47,98
778.51,74
777.54,54
776.58,50
775.61,55
774.65,57
773.69,48
772.72,26
771.76,5
770.79,-0
769.83,18
768.87,51
767.90,80
766.94,99
765.97,110
765.01,118
764.04,121
763.08,116
762.12,93
761.15,62
760.19,42
759.22,39
758.26,45
757.29,44
756.33,29
755.37,8
754.40,-4
753.44,-4
752.47,-1
751.51,-5
750.54,-17
749.58,-29
748.62,-25
747.65,-9
746.69,7
745.72,13
744.76,9
743.79,-2
742.83,-22
741.87,-38
740.90,-35
739.94,-20
738.97,-8
738.01,-5
737.05,6
736.08,19
735.12,29
734.15,40
733.19,51
732.22,55
731.26,42
730.30,25
729.33,28
728.37,53
727.40,78
726.44,86
725.47,70
724.51,49
723.55,28
722.58,4
721.62,-17
720.65,-27
719.69,-22
718.72,-13
717.76,-9
716.80,-3
715.83,6
714.87,13
713.90,12
712.94,-0
711.98,-15
711.01,-23
710.05,-21
709.08,-8
708.12,15
707.15,39
706.19,51
705.23,56
704.26,58
703.30,49
702.33,29
701.37,10
700.40,7
699.44,14
698.48,7
697.51,-8
696.55,-20
695.58,-15
694.62,8
693.65,34
692.69,52
691.73,57
690.76,49
689.80,22
688.83,-26
687.87,-20
686.91,188
685.94,250
684.98,31
684.01,-222
683.05,-106
682.08,245
681.12,212
680.16,56
679.19,-25
678.23,6
677.26,73
676.30,90
675.33,91
674.37,86
673.41,72
672.44,59
671.48,54
670.51,46
669.55,19
668.58,1
667.62,-4
666.66,1
665.69,16
664.73,43
663.76,65
662.80,66
661.84,58
660.87,50
659.91,46
658.94,44
657.98,37
657.01,24
656.05,9
655.09,-2
654.12,-5
653.16,-3
652.19,2
651.23,15
650.26,22
649.30,19
648.34,13
647.37,12
646.41,16
645.44,25
644.48,41
643.51,57
642.55,64
641.59,53
640.62,22
639.66,-14
638.69,-29
637.73,-20
636.77,1
635.80,20
634.84,33
633.87,45
632.91,47
631.94,51
630.98,60
630.02,64
629.05,38
628.09,-0
627.12,-7
626.16,9
625.19,27
624.23,28
623.27,7
622.30,-18
621.34,-32
620.37,-36
619.41,-38
618.44,-42
617.48,-45
616.52,-33
615.55,-14
614.59,6
613.62,23
612.66,30
611.70,16
610.73,-4
609.77,-12
608.80,-11
607.84,-2
606.87,12
605.91,30
604.95,42
603.98,41
603.02,35
602.05,33
601.09,43
600.12,58
599.16,54
598.20,45
597.23,32
596.27,15
595.30,-3
594.34,-12
593.37,-5
592.41,12
591.45,33
590.48,49
589.52,53
588.55,41
587.59,19
586.62,1
585.66,-9
584.70,-11
583.73,-5
582.77,11
581.80,27
580.84,33
579.88,29
578.91,21
577.95,18
576.98,29
576.02,62
575.05,87
574.09,93
573.13,81
572.16,64
571.20,47
570.23,31
569.27,21
568.30,17
567.34,17
566.38,21
565.41,31
564.45,40
563.48,44
562.52,46
561.55,41
560.59,25
559.63,1
558.66,-11
557.70,-17
556.73,-15
555.77,-2
554.81,24
553.84,43
552.88,53
551.91,60
550.95,69
549.98,80
549.02,90
548.06,97
547.09,98
546.13,89
545.16,75
544.20,63
543.23,65
542.27,85
541.31,108
540.34,119
539.38,111
538.41,88
537.45,67
536.48,61
535.52,68
534.56,86
533.59,114
532.63,150
531.66,187
530.70,216
529.74,235
528.77,247
527.81,255
526.84,258
525.88,250
524.91,237
523.95,218
522.99,193
522.02,164
521.06,136
520.09,126
519.13,117
518.16,102
517.20,79
516.24,48
515.27,15
514.31,-3
513.34,-3
512.38,4
511.41,8
510.45,-1
509.49,-11
508.52,-14
507.56,-15
506.59,-12
505.63,-1
504.67,16
503.70,19
502.74,14
501.77,6
500.81,0
499.84,-1
498.88,-3
497.92,-9
496.95,-13
495.99,-14
495.02,-11
494.06,-6
493.09,-3
492.13,-3
491.17,-6
490.20,-10
489.24,-12
488.27,-6
487.31,9
486.34,23
485.38,35
484.42,46
483.45,52
482.49,46
481.52,46
480.56,46
479.60,43
478.63,36
477.67,31
476.70,28
475.74,19
474.77,7
473.81,-3
472.85,-8
471.88,-3
470.92,10
469.95,24
468.99,36
468.02,44
467.06,50
466.10,55
465.13,68
464.17,89
463.20,117
462.24,149
461.27,180
460.31,194
459.35,198
458.38,201
457.42,212
456.45,235
455.49,261
454.53,273
453.56,268
452.60,250
451.63,227
450.67,211
449.70,196
448.74,185
447.78,175
446.81,161
445.85,135
444.88,116
443.92,103
442.95,92
441.99,79
441.03,65
440.06,53
439.10,47
438.13,39
437.17,29
436.20,19
435.24,14
434.28,10
433.31,-0
432.35,-8
431.38,-6
430.42,6
429.45,22
428.49,39
427.53,48
426.56,44
425.60,27
424.63,8
423.67,5
422.71,13
421.74,28
420.78,46
419.81,61
418.85,68
417.88,70
416.92,72
415.96,74
414.99,76
414.03,80
413.06,85
412.10,92
411.13,101
410.17,117
409.21,142
408.24,169
407.28,192
406.31,214
405.35,242
404.38,282
403.42,339
402.46,427
401.49,536
400.53,648
399.56,745
398.60,818
397.64,847
396.67,824
395.71,771
394.74,700
393.78,613
392.81,499
391.85,416
390.89,333
389.92,248
388.96,171
387.99,122
387.03,102
386.06,97
385.10,98
384.14,97
383.17,88
382.21,76
381.24,69
380.28,58
379.31,36
378.35,1
377.39,-31
376.42,-29
375.46,-7
374.49,13
373.53,12
372.57,-6
371.60,-10
370.64,-6
369.67,-4
368.71,-10
367.74,-21
366.78,-30
365.82,-36
364.85,-32
363.89,-16
362.92,9
361.96,25
360.99,18
360.03,0
359.07,-17
358.10,-20
357.14,-2
356.17,32
355.21,70
354.24,99
353.28,103
352.32,75
351.35,40
350.39,15
349.42,0
348.46,-5
347.50,2
346.53,17
345.57,23
344.60,26
343.64,31
342.67,40
341.71,45
340.75,40
339.78,32
338.82,25
337.85,19
336.89,15
335.92,21
334.96,28
334.00,32
333.03,30
332.07,26
331.10,19
330.14,12
329.17,14
328.21,31
327.25,62
326.28,96
325.32,126
324.35,146
323.39,157
322.43,158
321.46,164
320.50,176
319.53,183
318.57,179
317.60,163
316.64,147
315.68,135
314.71,126
313.75,119
312.78,117
311.82,113
310.85,110
309.89,104
308.93,88
307.96,58
307.00,13
306.03,-25
305.07,-39
304.10,-30
303.14,-4
302.18,21
301.21,31
300.25,35
299.28,32
298.32,18
297.36,-10
296.39,-28
295.43,-20
294.46,0
293.50,17
292.53,20
291.57,11
290.61,-2
289.64,-13
288.68,-20
287.71,-24
286.75,-23
285.78,-17
284.82,-5
283.86,7
282.89,14
281.93,8
280.96,-1
280.00,-5
279.03,-7
278.07,-10
277.11,-17
276.14,-20
275.18,-20
274.21,-17
273.25,-9
272.28,-3
271.32,-1
270.36,4
269.39,15
268.43,30
267.46,40
266.50,41
265.54,39
264.57,35
263.61,31
262.64,27
261.68,26
260.71,33
259.75,49
258.79,70
257.82,88
256.86,97
255.89,104
254.93,107
253.96,105
253.00,104
252.04,114
251.07,122
250.11,129
249.14,138
248.18,151
247.21,155
246.25,147
245.29,130
244.32,111
243.36,96
242.39,80
241.43,62
240.47,45
239.50,33
238.54,38
237.57,49
236.61,48
235.64,40
234.68,34
233.72,40
232.75,48
231.79,53
230.82,53
229.86,53
228.89,62
227.93,95
226.97,128
226.00,149
225.04,152
224.07,145
223.11,134
222.14,117
221.18,93
220.22,63
219.25,30
218.29,22
217.32,31
216.36,41
215.40,42
214.43,30
213.47,9
212.50,-6
211.54,-7
210.57,5
209.61,29
208.65,48
207.68,55
206.72,46
205.75,24
204.79,2
203.82,1
202.86,11
201.90,25
200.93,36
199.97,45
199.00,53
198.04,57
197.07,60
196.11,65
195.15,74
194.18,78
193.22,78
192.25,75
191.29,72
190.33,76
189.36,86
188.40,94
187.43,100
186.47,104
185.50,116
184.54,132
183.58,148
182.61,163
181.65,181
180.68,201
179.72,215
178.75,231
177.79,253
176.83,281
175.86,307
174.90,331
173.93,352
172.97,368
172.00,373
171.04,362
170.08,341
169.11,313
168.15,281
167.18,249
166.22,222
165.26,203
164.29,191
163.33,182
162.36,171
161.40,156
160.43,140
159.47,126
158.51,115
157.54,104
156.58,95
155.61,84
154.65,72
153.68,55
152.72,37
151.76,24
150.79,16
149.83,11
148.86,10
147.90,8
146.93,0
145.97,-4
145.01,-9
144.04,-16
143.08,-21
142.11,-21
141.15,-18
140.19,-13
139.22,-6
138.26,4
137.29,12
136.33,16
135.36,13
134.40,-8
133.44,-37
132.47,-62
131.51,-74
130.54,-70
129.58,-48
128.61,-23
127.65,-7
126.69,-4
125.72,-14
124.76,-22
123.79,-25
122.83,-23
121.86,-13
120.90,9
119.94,43
118.97,79
118.01,110
117.04,130
116.08,137
115.11,157
114.15,190
113.19,232
112.22,273
111.26,313
110.29,360
109.33,413
108.37,468
107.40,518
106.44,550
105.47,567
104.51,564
103.54,544
102.58,514
101.62,490
100.65,465
99.69,437
98.72,406
97.76,367
96.79,328
95.83,291
94.87,258
93.90,229
92.94,207
91.97,188
91.01,170
90.04,154
89.08,140
88.12,126
87.15,106
86.19,78
85.22,45
84.26,16
83.30,1
82.33,-8
81.37,-14
80.40,-26
79.44,-42
78.47,-58
77.51,-73
76.55,-83
