Created As Omnic File,PLAS 248
Raman Shift / cm-1,INT
3418.58,-2
3417.61,-0
3416.65,-1
3415.68,-1
3414.72,0
3413.76,0
3412.79,-5
3411.83,-10
3410.86,-6
3409.90,-3
3408.94,-2
3407.97,-2
3407.01,-2
3406.04,-2
3405.08,-1
3404.11,-1
3403.15,-1
3402.19,-2
3401.22,-6
3400.26,-9
3399.29,-10
3398.33,-8
3397.36,-6
3396.40,-5
3395.44,-3
3394.47,-0
3393.51,-1
3392.54,-8
3391.58,-10
3390.61,-9
3389.65,-7
3388.69,-7
3387.72,-8
3386.76,-7
3385.79,-5
3384.83,-4
3383.87,-7
3382.90,-9
3381.94,-7
3380.97,-5
3380.01,-4
3379.04,-6
3378.08,-10
3377.12,-13
3376.15,-13
3375.19,-9
3374.22,-5
3373.26,-6
3372.29,-9
3371.33,-9
3370.37,-8
3369.40,-6
3368.44,-6
3367.47,-8
3366.51,-11
3365.54,-13
3364.58,-13
3363.62,-11
3362.65,-9
3361.69,-9
3360.72,-10
3359.76,-12
3358.80,-10
3357.83,-8
3356.87,-10
3355.90,-11
3354.94,-9
3353.97,-8
3353.01,-10
3352.05,-10
3351.08,-8
3350.12,-3
3349.15,2
3348.19,1
3347.22,-6
3346.26,-8
3345.30,-6
3344.33,-1
3343.37,3
3342.40,2
3341.44,-0
3340.47,-0
3339.51,-0
3338.55,-2
3337.58,-4
3336.62,-3
3335.65,-1
3334.69,2
3333.73,3
3332.76,4
3331.80,6
3330.83,8
3329.87,7
3328.90,3
3327.94,-2
3326.98,-3
3326.01,4
3325.05,10
3324.08,9
3323.12,5
3322.15,0
3321.19,0
3320.23,3
3319.26,1
3318.30,-2
3317.33,-3
3316.37,-3
3315.40,-2
3314.44,-2
3313.48,-3
3312.51,-4
3311.55,-3
3310.58,-3
3309.62,-2
3308.66,0
3307.69,-1
3306.73,-5
3305.76,-9
3304.80,-9
3303.83,-6
3302.87,-5
3301.91,-4
3300.94,-4
3299.98,-4
3299.01,-3
3298.05,-2
3297.08,-1
3296.12,-1
3295.16,-3
3294.19,-3
3293.23,0
3292.26,2
3291.30,-1
3290.33,-4
3289.37,-6
3288.41,-5
3287.44,-3
3286.48,-2
3285.51,-1
3284.55,-1
3283.59,-2
3282.62,-1
3281.66,0
3280.69,-0
3279.73,-0
3278.76,1
3277.80,2
3276.84,1
3275.87,0
3274.91,-1
3273.94,-0
3272.98,1
3272.01,-0
3271.05,-1
3270.09,-0
3269.12,2
3268.16,0
3267.19,-2
3266.23,-2
3265.26,-0
3264.30,-1
3263.34,-1
3262.37,-1
3261.41,-1
3260.44,-1
3259.48,2
3258.51,7
3257.55,7
3256.59,-0
3255.62,-3
3254.66,-1
3253.69,-2
3252.73,-4
3251.77,-3
3250.80,-1
3249.84,-0
3248.87,-0
3247.91,1
3246.94,1
3245.98,0
3245.02,-2
3244.05,-4
3243.09,-4
3242.12,1
3241.16,3
3240.19,-2
3239.23,-5
3238.27,-4
3237.30,-1
3236.34,2
3235.37,2
3234.41,2
3233.44,-1
3232.48,-4
3231.52,-3
3230.55,-0
3229.59,1
3228.62,-0
3227.66,-3
3226.70,-5
3225.73,-5
3224.77,-4
3223.80,-3
3222.84,-2
3221.87,-2
3220.91,-2
3219.95,-3
3218.98,-3
3218.02,-2
3217.05,-1
3216.09,-1
3215.12,0
3214.16,3
3213.20,3
3212.23,1
3211.27,-1
3210.30,-2
3209.34,-3
3208.37,-3
3207.41,-3
3206.45,-4
3205.48,-4
3204.52,-4
3203.55,-4
3202.59,-2
3201.63,-0
3200.66,1
3199.70,1
3198.73,-0
3197.77,-2
3196.80,-2
3195.84,-0
3194.88,-0
3193.91,-1
3192.95,1
3191.98,6
3191.02,4
3190.05,0
3189.09,-0
3188.13,-0
3187.16,0
3186.20,0
3185.23,3
3184.27,4
3183.30,0
3182.34,-3
3181.38,-2
3180.41,1
3179.45,4
3178.48,3
3177.52,-1
3176.56,-2
3175.59,-2
3174.63,-1
3173.66,1
3172.70,-0
3171.73,-1
3170.77,2
3169.81,6
3168.84,4
3167.88,-2
3166.91,-8
3165.95,-10
3164.98,-7
3164.02,-2
3163.06,-0
3162.09,0
3161.13,0
3160.16,-2
3159.20,-4
3158.23,-6
3157.27,-3
3156.31,-1
3155.34,-0
3154.38,-0
3153.41,-1
3152.45,-3
3151.49,-4
3150.52,-5
3149.56,-5
3148.59,-5
3147.63,-4
3146.66,-4
3145.70,-4
3144.74,-2
3143.77,0
3142.81,3
3141.84,4
3140.88,1
3139.91,-3
3138.95,-4
3137.99,-2
3137.02,0
3136.06,1
3135.09,-2
3134.13,-3
3133.16,-0
3132.20,3
3131.24,4
3130.27,1
3129.31,-6
3128.34,-7
3127.38,-3
3126.42,1
3125.45,3
3124.49,4
3123.52,1
3122.56,-1
3121.59,-4
3120.63,-2
3119.67,2
3118.70,2
3117.74,-0
3116.77,0
3115.81,2
3114.84,1
3113.88,0
3112.92,1
3111.95,3
3110.99,4
3110.02,4
3109.06,3
3108.09,3
3107.13,2
3106.17,-1
3105.20,-4
3104.24,-5
3103.27,-0
3102.31,3
3101.34,2
3100.38,1
3099.42,2
3098.45,4
3097.49,5
3096.52,3
3095.56,0
3094.60,0
3093.63,2
3092.67,1
3091.70,-1
3090.74,1
3089.77,5
3088.81,7
3087.85,7
3086.88,6
3085.92,4
3084.95,6
3083.99,9
3083.02,9
3082.06,8
3081.10,7
3080.13,7
3079.17,7
3078.20,7
3077.24,7
3076.27,9
3075.31,11
3074.35,11
3073.38,6
3072.42,4
3071.45,8
3070.49,7
3069.53,1
3068.56,-0
3067.60,4
3066.63,3
3065.67,-2
3064.70,-1
3063.74,2
3062.78,2
3061.81,2
3060.85,1
3059.88,1
3058.92,3
3057.95,5
3056.99,6
3056.03,5
3055.06,6
3054.10,7
3053.13,3
3052.17,-1
3051.20,-2
3050.24,-2
3049.28,-1
3048.31,1
3047.35,3
3046.38,5
3045.42,6
3044.46,5
3043.49,2
3042.53,-1
3041.56,-3
3040.60,0
3039.63,7
3038.67,6
3037.71,-2
3036.74,-5
3035.78,1
3034.81,3
3033.85,0
3032.88,-2
3031.92,-1
3030.96,3
3029.99,6
3029.03,5
3028.06,4
3027.10,1
3026.13,-2
3025.17,-2
3024.21,1
3023.24,1
3022.28,-1
3021.31,-1
3020.35,-2
3019.39,-7
3018.42,-8
3017.46,-2
3016.49,5
3015.53,6
3014.56,5
3013.60,5
3012.64,6
3011.67,5
3010.71,4
3009.74,1
3008.78,1
3007.81,6
3006.85,10
3005.89,9
3004.92,8
3003.96,7
3002.99,7
3002.03,9
3001.06,10
3000.10,11
2999.14,11
2998.17,10
2997.21,10
2996.24,12
2995.28,10
2994.32,5
2993.35,5
2992.39,7
2991.42,10
2990.46,13
2989.49,17
2988.53,21
2987.57,23
2986.60,22
2985.64,21
2984.67,19
2983.71,17
2982.74,15
2981.78,20
2980.82,28
2979.85,31
2978.89,33
2977.92,34
2976.96,36
2975.99,38
2975.03,40
2974.07,43
2973.10,46
2972.14,45
2971.17,44
2970.21,47
2969.25,52
2968.28,57
2967.32,61
2966.35,68
2965.39,72
2964.42,74
2963.46,76
2962.50,79
2961.53,83
2960.57,86
2959.60,90
2958.64,96
2957.67,103
2956.71,110
2955.75,117
2954.78,122
2953.82,126
2952.85,129
2951.89,133
2950.92,139
2949.96,150
2949.00,166
2948.03,182
2947.07,198
2946.10,217
2945.14,238
2944.17,264
2943.21,293
2942.25,324
2941.28,355
2940.32,388
2939.35,425
2938.39,457
2937.43,484
2936.46,514
2935.50,546
2934.53,573
2933.57,597
2932.60,620
2931.64,642
2930.68,660
2929.71,676
2928.75,689
2927.78,700
2926.82,711
2925.85,718
2924.89,720
2923.93,720
2922.96,726
2922.00,733
2921.03,736
2920.07,735
2919.10,736
2918.14,741
2917.18,750
2916.21,761
2915.25,770
2914.28,780
2913.32,790
2912.36,804
2911.39,822
2910.43,842
2909.46,861
2908.50,888
2907.53,929
2906.57,974
2905.61,1005
2904.64,1028
2903.68,1056
2902.71,1090
2901.75,1129
2900.78,1167
2899.82,1196
2898.86,1223
2897.89,1248
2896.93,1271
2895.96,1286
2895.00,1298
2894.03,1318
2893.07,1344
2892.11,1374
2891.14,1410
2890.18,1453
2889.21,1504
2888.25,1569
2887.29,1662
2886.32,1800
2885.36,1971
2884.39,2168
2883.43,2378
2882.46,2590
2881.50,2762
2880.54,2809
2879.57,2745
2878.61,2527
2877.64,2229
2876.68,1916
2875.71,1643
2874.75,1458
2873.79,1327
2872.82,1235
2871.86,1173
2870.89,1131
2869.93,1102
2868.96,1074
2868.00,1058
2867.04,1054
2866.07,1060
2865.11,1073
2864.14,1091
2863.18,1113
2862.22,1139
2861.25,1164
2860.29,1198
2859.32,1245
2858.36,1299
2857.39,1351
2856.43,1405
2855.47,1465
2854.50,1532
2853.54,1606
2852.57,1677
2851.61,1742
2850.64,1805
2849.68,1871
2848.72,1925
2847.75,1956
2846.79,1966
2845.82,1952
2844.86,1908
2843.89,1829
2842.93,1720
2841.97,1585
2841.00,1444
2840.04,1303
2839.07,1161
2838.11,1019
2837.15,885
2836.18,766
2835.22,660
2834.25,568
2833.29,491
2832.32,430
2831.36,378
2830.40,328
2829.43,285
2828.47,252
2827.50,223
2826.54,197
2825.57,174
2824.61,154
2823.65,137
2822.68,126
2821.72,118
2820.75,112
2819.79,105
2818.82,96
2817.86,88
2816.90,84
2815.93,80
2814.97,74
2814.00,68
2813.04,60
2812.08,54
2811.11,53
2810.15,51
2809.18,46
2808.22,43
2807.25,43
2806.29,42
2805.33,37
2804.36,33
2803.40,29
2802.43,28
2801.47,30
2800.50,31
2799.54,32
2798.58,30
2797.61,26
2796.65,21
2795.68,16
2794.72,15
2793.75,21
2792.79,22
2791.83,15
2790.86,9
2789.90,6
2788.93,7
2787.97,13
2787.00,18
2786.04,17
2785.08,14
2784.11,10
2783.15,5
2782.18,1
2781.22,-0
2780.26,2
2779.29,5
2778.33,4
2777.36,3
2776.40,-0
2775.43,-3
2774.47,-3
2773.51,-1
2772.54,-3
2771.58,-6
2770.61,-2
2769.65,1
2768.68,0
2767.72,0
2766.76,2
2765.79,3
2764.83,-1
2763.86,-4
2762.90,-4
2761.93,-1
2760.97,5
2760.01,11
2759.04,9
2758.08,4
2757.11,3
2756.15,3
2755.19,8
2754.22,14
2753.26,17
2752.29,19
2751.33,17
2750.36,16
2749.40,18
2748.44,21
2747.47,22
2746.51,21
2745.54,21
2744.58,23
2743.61,25
2742.65,27
2741.69,30
2740.72,33
2739.76,37
2738.79,42
2737.83,44
2736.86,47
2735.90,50
2734.94,55
2733.97,61
2733.01,67
2732.04,72
2731.08,78
2730.12,83
2729.15,90
2728.19,98
2727.22,107
2726.26,116
2725.29,123
2724.33,126
2723.37,125
2722.40,127
2721.44,132
2720.47,136
2719.51,141
2718.54,146
2717.58,150
2716.62,150
2715.65,145
2714.69,138
2713.72,131
2712.76,124
2711.79,119
2710.83,116
2709.87,113
2708.90,109
2707.94,99
2706.97,94
2706.01,93
2705.05,91
2704.08,87
2703.12,84
2702.15,80
2701.19,75
2700.22,69
2699.26,63
2698.30,58
2697.33,56
2696.37,55
2695.40,54
2694.44,53
2693.47,51
2692.51,49
2691.55,48
2690.58,47
2689.62,46
2688.65,43
2687.69,41
2686.72,41
2685.76,41
2684.80,39
2683.83,36
2682.87,36
2681.90,34
2680.94,26
2679.98,22
2679.01,26
2678.05,30
2677.08,29
2676.12,24
2675.15,23
2674.19,23
2673.23,24
2672.26,26
2671.30,19
2670.33,12
2669.37,15
2668.40,22
2667.44,22
2666.48,19
2665.51,19
2664.55,20
2663.58,18
2662.62,15
2661.65,14
2660.69,17
2659.73,18
2658.76,19
2657.80,20
2656.83,22
2655.87,26
2654.91,30
2653.94,30
2652.98,27
2652.01,27
2651.05,29
2650.08,30
2649.12,26
2648.16,21
2647.19,18
2646.23,17
2645.26,18
2644.30,19
2643.33,20
2642.37,22
2641.41,26
2640.44,28
2639.48,27
2638.51,23
2637.55,19
2636.58,16
2635.62,11
2634.66,8
2633.69,10
2632.73,13
2631.76,14
2630.80,15
2629.83,18
2628.87,21
2627.91,21
2626.94,20
2625.98,21
2625.01,22
2624.05,21
2623.09,21
2622.12,21
2621.16,20
2620.19,22
2619.23,24
2618.26,23
2617.30,19
2616.34,20
2615.37,24
2614.41,27
2613.44,29
2612.48,30
2611.51,30
2610.55,30
2609.59,30
2608.62,29
2607.66,24
2606.69,22
2605.73,23
2604.76,25
2603.80,26
2602.84,27
2601.87,28
2600.91,27
2599.94,26
2598.98,25
2598.02,23
2597.05,22
2596.09,24
2595.12,27
2594.16,27
2593.19,26
2592.23,23
2591.27,21
2590.30,25
2589.34,30
2588.37,31
2587.41,29
2586.44,26
2585.48,24
2584.52,22
2583.55,19
2582.59,17
2581.62,16
2580.66,18
2579.69,19
2578.73,20
2577.77,18
2576.80,15
2575.84,11
2574.87,10
2573.91,12
2572.95,13
2571.98,11
2571.02,8
2570.05,8
2569.09,8
2568.12,8
2567.16,8
2566.20,6
2565.23,5
2564.27,5
2563.30,6
2562.34,8
2561.37,9
2560.41,5
2559.45,1
2558.48,3
2557.52,5
2556.55,2
2555.59,0
2554.62,2
2553.66,4
2552.70,4
2551.73,3
2550.77,-0
2549.80,-4
2548.84,-4
2547.88,-1
2546.91,-0
2545.95,-1
2544.98,-2
2544.02,-2
2543.05,-1
2542.09,-2
2541.13,-2
2540.16,-0
2539.20,0
2538.23,-0
2537.27,-0
2536.30,-1
2535.34,-2
2534.38,-0
2533.41,1
2532.45,-2
2531.48,-4
2530.52,-4
2529.55,-3
2528.59,-4
2527.63,-3
2526.66,-1
2525.70,2
2524.73,1
2523.77,-3
2522.81,-3
2521.84,-0
2520.88,-2
2519.91,-6
2518.95,-8
2517.98,-11
2517.02,-11
2516.06,-9
2515.09,-8
2514.13,-8
2513.16,-8
2512.20,-7
2511.23,-7
2510.27,-6
2509.31,-6
2508.34,-8
2507.38,-9
2506.41,-8
2505.45,-8
2504.48,-8
2503.52,-6
2502.56,-4
2501.59,-2
2500.63,-3
2499.66,-5
2498.70,-6
2497.74,-5
2496.77,-4
2495.81,-3
2494.84,-1
2493.88,2
2492.91,2
2491.95,-1
2490.99,-1
2490.02,-0
2489.06,1
2488.09,1
2487.13,0
2486.16,-2
2485.20,-4
2484.24,-3
2483.27,1
2482.31,8
2481.34,11
2480.38,6
2479.41,-0
2478.45,-1
2477.49,2
2476.52,6
2475.56,9
2474.59,5
2473.63,-0
2472.66,-1
2471.70,1
2470.74,-2
2469.77,-5
2468.81,-2
2467.84,8
2466.88,9
2465.92,5
2464.95,2
2463.99,1
2463.02,0
2462.06,-0
2461.09,-1
2460.13,-4
2459.17,-6
2458.20,-7
2457.24,-8
2456.27,-5
2455.31,-2
2454.34,-3
2453.38,-3
2452.42,-3
2451.45,-3
2450.49,-7
2449.52,-11
2448.56,-11
2447.59,-10
2446.63,-10
2445.67,-12
2444.70,-13
2443.74,-13
2442.77,-7
2441.81,3
2440.85,6
2439.88,1
2438.92,-2
2437.95,-1
2436.99,-0
2436.02,0
2435.06,-0
2434.10,-3
2433.13,-6
2432.17,-2
2431.20,2
2430.24,2
2429.27,-0
2428.31,2
2427.35,4
2426.38,3
2425.42,-0
2424.45,-1
2423.49,0
2422.52,1
2421.56,1
2420.60,1
2419.63,2
2418.67,3
2417.70,5
2416.74,5
2415.78,1
2414.81,-2
2413.85,-0
2412.88,0
2411.92,-3
2410.95,-5
2409.99,-3
2409.03,-2
2408.06,0
2407.10,2
2406.13,-0
2405.17,-4
2404.20,-5
2403.24,-5
2402.28,-3
2401.31,0
2400.35,2
2399.38,5
2398.42,5
2397.45,3
2396.49,0
2395.53,-1
2394.56,-2
2393.60,-2
2392.63,-1
2391.67,-2
2390.71,-4
2389.74,-4
2388.78,-4
2387.81,-3
2386.85,-2
2385.88,-1
2384.92,-1
2383.96,-2
2382.99,-5
2382.03,-7
2381.06,-5
2380.10,-4
2379.13,-3
2378.17,-2
2377.21,1
2376.24,2
2375.28,1
2374.31,-3
2373.35,-9
2372.38,-12
2371.42,-11
2370.46,-6
2369.49,-2
2368.53,0
2367.56,-1
2366.60,-4
2365.64,-5
2364.67,-7
2363.71,-6
2362.74,-2
2361.78,-3
2360.81,-8
2359.85,-10
2358.89,-9
2357.92,-7
2356.96,-4
2355.99,-2
2355.03,-2
2354.06,-3
2353.10,-1
2352.14,1
2351.17,-4
2350.21,-10
2349.24,-9
2348.28,-4
2347.31,-1
2346.35,-2
2345.39,-3
2344.42,-4
2343.46,-5
2342.49,-7
2341.53,-9
2340.57,-10
2339.60,-9
2338.64,-5
2337.67,0
2336.71,-0
2335.74,-2
2334.78,-3
2333.82,-3
2332.85,-6
2331.89,-9
2330.92,-10
2329.96,-8
2328.99,-3
2328.03,3
2327.07,6
2326.10,7
2325.14,6
2324.17,3
2323.21,-0
2322.24,-2
2321.28,-4
2320.32,-8
2319.35,-8
2318.39,-5
2317.42,-2
2316.46,-3
2315.49,-7
2314.53,-8
2313.57,-6
2312.60,-3
2311.64,0
2310.67,1
2309.71,1
2308.75,1
2307.78,-2
2306.82,-5
2305.85,-9
2304.89,-11
2303.92,-8
2302.96,-3
2302.00,-1
2301.03,-2
2300.07,-4
2299.10,-6
2298.14,-7
2297.17,-9
2296.21,-8
2295.25,-4
2294.28,-3
2293.32,-2
2292.35,1
2291.39,5
2290.42,8
2289.46,9
2288.50,7
2287.53,3
2286.57,-1
2285.60,-3
2284.64,-5
2283.68,-1
2282.71,5
2281.75,7
2280.78,6
2279.82,5
2278.85,3
2277.89,1
2276.93,1
2275.96,1
2275.00,1
2274.03,0
2273.07,1
2272.10,2
2271.14,2
2270.18,3
2269.21,0
2268.25,-5
2267.28,-6
2266.32,-5
2265.35,-4
2264.39,-2
2263.43,-1
2262.46,-2
2261.50,-1
2260.53,3
2259.57,6
2258.61,6
2257.64,2
2256.68,-1
2255.71,-3
2254.75,-3
2253.78,-1
2252.82,3
2251.86,6
2250.89,8
2249.93,7
2248.96,5
2248.00,3
2247.03,-0
2246.07,-1
2245.11,-0
2244.14,2
2243.18,3
2242.21,-0
2241.25,-4
2240.28,-6
2239.32,-5
2238.36,-3
2237.39,-1
2236.43,-1
2235.46,-1
2234.50,-2
2233.54,-1
2232.57,-0
2231.61,-1
2230.64,-1
2229.68,0
2228.71,-0
2227.75,-2
2226.79,-3
2225.82,-6
2224.86,-9
2223.89,-9
2222.93,-8
2221.96,-5
2221.00,-1
2220.04,1
2219.07,-3
2218.11,-5
2217.14,-4
2216.18,-2
2215.21,-3
2214.25,-3
2213.29,-0
2212.32,0
2211.36,-4
2210.39,-7
2209.43,-7
2208.47,-4
2207.50,-3
2206.54,-6
2205.57,-8
2204.61,-8
2203.64,-5
2202.68,-1
2201.72,0
2200.75,-3
2199.79,-6
2198.82,-6
2197.86,-5
2196.89,-3
2195.93,-2
2194.97,-2
2194.00,-3
2193.04,-3
2192.07,-2
2191.11,-0
2190.14,2
2189.18,4
2188.22,5
2187.25,7
2186.29,9
2185.32,10
2184.36,11
2183.40,11
2182.43,9
2181.47,6
2180.50,4
2179.54,2
2178.57,2
2177.61,3
2176.65,2
2175.68,-0
2174.72,-2
2173.75,-3
2172.79,-3
2171.82,-4
2170.86,-5
2169.90,-5
2168.93,-3
2167.97,-1
2167.00,-0
2166.04,-1
2165.07,-3
2164.11,-3
2163.15,-2
2162.18,-0
2161.22,1
2160.25,3
2159.29,3
2158.32,3
2157.36,2
2156.40,-1
2155.43,-2
2154.47,-1
2153.50,0
2152.54,0
2151.58,2
2150.61,6
2149.65,8
2148.68,7
2147.72,5
2146.75,3
2145.79,3
2144.83,4
2143.86,4
2142.90,3
2141.93,1
2140.97,-1
2140.00,-1
2139.04,-2
2138.08,-4
2137.11,-5
2136.15,-2
2135.18,0
2134.22,-1
2133.25,-1
2132.29,2
2131.33,5
2130.36,5
2129.40,4
2128.43,4
2127.47,8
2126.51,10
2125.54,9
2124.58,5
2123.61,2
2122.65,-2
2121.68,-1
2120.72,1
2119.76,1
2118.79,0
2117.83,1
2116.86,2
2115.90,5
2114.93,9
2113.97,10
2113.01,5
2112.04,1
2111.08,2
2110.11,5
2109.15,6
2108.18,6
2107.22,2
2106.26,-4
2105.29,-4
2104.33,-0
2103.36,2
2102.40,1
2101.44,0
2100.47,-2
2099.51,-2
2098.54,-1
2097.58,1
2096.61,-2
2095.65,-6
2094.69,-6
2093.72,-4
2092.76,-4
2091.79,-6
2090.83,-4
2089.86,-0
2088.90,1
2087.94,-1
2086.97,-4
2086.01,-5
2085.04,-5
2084.08,-7
2083.11,-9
2082.15,-8
2081.19,-4
2080.22,-3
2079.26,-4
2078.29,-3
2077.33,2
2076.37,3
2075.40,-4
2074.44,-10
2073.47,-11
2072.51,-8
2071.54,-4
2070.58,-1
2069.62,-2
2068.65,-6
2067.69,-7
2066.72,-5
2065.76,-2
2064.79,-1
2063.83,0
2062.87,-1
2061.90,-2
2060.94,-3
2059.97,-3
2059.01,-4
2058.04,-6
2057.08,-5
2056.12,-3
2055.15,-3
2054.19,-8
2053.22,-12
2052.26,-10
2051.30,-7
2050.33,-5
2049.37,-3
2048.40,-2
2047.44,-3
2046.47,-4
2045.51,-5
2044.55,-5
2043.58,-6
2042.62,-4
2041.65,0
2040.69,6
2039.72,5
2038.76,2
2037.80,-1
2036.83,-4
2035.87,-3
2034.90,1
2033.94,3
2032.97,2
2032.01,1
2031.05,1
2030.08,-1
2029.12,-2
2028.15,-4
2027.19,-3
2026.23,-1
2025.26,0
2024.30,-1
2023.33,-1
2022.37,1
2021.40,3
2020.44,4
2019.48,4
2018.51,4
2017.55,2
2016.58,-2
2015.62,-6
2014.65,-7
2013.69,-4
2012.73,0
2011.76,2
2010.80,3
2009.83,4
2008.87,4
2007.90,4
2006.94,3
2005.98,-1
2005.01,-6
2004.05,-9
2003.08,-9
2002.12,-8
2001.15,-7
2000.19,-6
1999.23,-4
1998.26,-4
1997.30,-7
1996.33,-10
1995.37,-8
1994.41,-3
1993.44,-0
1992.48,1
1991.51,2
1990.55,2
1989.58,2
1988.62,-0
1987.66,-2
1986.69,-2
1985.73,-3
1984.76,-4
1983.80,-4
1982.83,-5
1981.87,-6
1980.91,-5
1979.94,-2
1978.98,-3
1978.01,-4
1977.05,-4
1976.08,-4
1975.12,-5
1974.16,-7
1973.19,-9
1972.23,-8
1971.26,-4
1970.30,-0
1969.34,0
1968.37,-2
1967.41,-2
1966.44,-3
1965.48,-5
1964.51,-7
1963.55,-6
1962.59,-4
1961.62,-3
1960.66,-5
1959.69,-7
1958.73,-7
1957.76,-7
1956.80,-7
1955.84,-6
1954.87,-4
1953.91,-3
1952.94,-2
1951.98,-0
1951.01,1
1950.05,3
1949.09,4
1948.12,3
1947.16,1
1946.19,-2
1945.23,-4
1944.27,-4
1943.30,-1
1942.34,1
1941.37,3
1940.41,2
1939.44,0
1938.48,-2
1937.52,-2
1936.55,-0
1935.59,1
1934.62,3
1933.66,3
1932.69,2
1931.73,3
1930.77,6
1929.80,6
1928.84,2
1927.87,-1
1926.91,-3
1925.94,-3
1924.98,-5
1924.02,-8
1923.05,-6
1922.09,-0
1921.12,0
1920.16,-4
1919.20,-5
1918.23,0
1917.27,5
1916.30,3
1915.34,-3
1914.37,-6
1913.41,-6
1912.45,-6
1911.48,-5
1910.52,-3
1909.55,-1
1908.59,0
1907.62,0
1906.66,-1
1905.70,-3
1904.73,-4
1903.77,-3
1902.80,-1
1901.84,1
1900.87,2
1899.91,1
1898.95,-1
1897.98,-1
1897.02,-0
1896.05,1
1895.09,4
1894.13,7
1893.16,6
1892.20,1
1891.23,-1
1890.27,-1
1889.30,-0
1888.34,1
1887.38,3
1886.41,5
1885.45,7
1884.48,7
1883.52,6
1882.55,2
1881.59,-2
1880.63,-3
1879.66,0
1878.70,2
1877.73,-2
1876.77,-9
1875.80,-11
1874.84,-6
1873.88,-1
1872.91,-1
1871.95,-2
1870.98,2
1870.02,6
1869.06,3
1868.09,0
1867.13,-0
1866.16,-0
1865.20,-1
1864.23,-2
1863.27,-2
1862.31,-2
1861.34,-2
1860.38,-3
1859.41,-4
1858.45,-3
1857.48,-0
1856.52,2
1855.56,3
1854.59,4
1853.63,6
1852.66,8
1851.70,7
1850.73,3
1849.77,-0
1848.81,-2
1847.84,-1
1846.88,1
1845.91,2
1844.95,1
1843.98,0
1843.02,3
1842.06,6
1841.09,7
1840.13,4
1839.16,1
1838.20,-1
1837.24,-3
1836.27,-4
1835.31,-3
1834.34,-2
1833.38,-2
1832.41,-2
1831.45,-2
1830.49,-2
1829.52,-1
1828.56,2
1827.59,6
1826.63,10
1825.66,10
1824.70,8
1823.74,9
1822.77,10
1821.81,9
1820.84,7
1819.88,5
1818.91,5
1817.95,6
1816.99,5
1816.02,2
1815.06,0
1814.09,-0
1813.13,1
1812.17,3
1811.20,6
1810.24,8
1809.27,9
1808.31,10
1807.34,11
1806.38,10
1805.42,8
1804.45,4
1803.49,0
1802.52,-1
1801.56,2
1800.59,6
1799.63,8
1798.67,10
1797.70,7
1796.74,2
1795.77,1
1794.81,3
1793.84,2
1792.88,0
1791.92,-1
1790.95,1
1789.99,3
1789.02,4
1788.06,3
1787.10,1
1786.13,0
1785.17,0
1784.20,2
1783.24,4
1782.27,4
1781.31,2
1780.35,1
1779.38,1
1778.42,-1
1777.45,-3
1776.49,-2
1775.52,1
1774.56,3
1773.60,4
1772.63,5
1771.67,4
1770.70,3
1769.74,3
1768.77,5
1767.81,6
1766.85,7
1765.88,8
1764.92,8
1763.95,7
1762.99,6
1762.03,3
1761.06,0
1760.10,-4
1759.13,-5
1758.17,-3
1757.20,-3
1756.24,-7
1755.28,-9
1754.31,-6
1753.35,2
1752.38,6
1751.42,4
1750.45,1
1749.49,1
1748.53,3
1747.56,3
1746.60,1
1745.63,-2
1744.67,-7
1743.70,-8
1742.74,-4
1741.78,-0
1740.81,1
1739.85,0
1738.88,-1
1737.92,-2
1736.96,-3
1735.99,-3
1735.03,-4
1734.06,-7
1733.10,-9
1732.13,-7
1731.17,-6
1730.21,-5
1729.24,-4
1728.28,-2
1727.31,-0
1726.35,-0
1725.38,-3
1724.42,-7
1723.46,-7
1722.49,-4
1721.53,-2
1720.56,-0
1719.60,1
1718.63,-0
1717.67,-2
1716.71,-4
1715.74,-5
1714.78,-5
1713.81,-5
1712.85,-4
1711.89,-4
1710.92,-3
1709.96,-3
1708.99,-3
1708.03,-2
1707.06,-1
1706.10,-1
1705.14,-2
1704.17,-2
1703.21,-3
1702.24,-4
1701.28,-3
1700.31,-1
1699.35,0
1698.39,1
1697.42,3
1696.46,4
1695.49,4
1694.53,3
1693.56,4
1692.60,4
1691.64,3
1690.67,3
1689.71,2
1688.74,0
1687.78,-1
1686.81,-1
1685.85,-0
1684.89,1
1683.92,0
1682.96,-0
1681.99,-1
1681.03,1
1680.07,2
1679.10,3
1678.14,6
1677.17,13
1676.21,19
1675.24,19
1674.28,17
1673.32,17
1672.35,17
1671.39,15
1670.42,12
1669.46,8
1668.49,5
1667.53,4
1666.57,6
1665.60,8
1664.64,10
1663.67,13
1662.71,13
1661.74,8
1660.78,4
1659.82,4
1658.85,7
1657.89,6
1656.92,3
1655.96,1
1655.00,1
1654.03,1
1653.07,1
1652.10,-0
1651.14,0
1650.17,2
1649.21,3
1648.25,4
1647.28,4
1646.32,3
1645.35,3
1644.39,2
1643.42,1
1642.46,2
1641.50,5
1640.53,5
1639.57,3
1638.60,1
1637.64,-2
1636.67,-5
1635.71,-6
1634.75,-4
1633.78,-3
1632.82,-1
1631.85,-0
1630.89,-3
1629.93,-8
1628.96,-9
1628.00,-9
1627.03,-10
1626.07,-10
1625.10,-9
1624.14,-8
1623.18,-5
1622.21,-2
1621.25,0
1620.28,-2
1619.32,-8
1618.35,-13
1617.39,-12
1616.43,-8
1615.46,-3
1614.50,2
1613.53,3
1612.57,-1
1611.60,-5
1610.64,-9
1609.68,-10
1608.71,-6
1607.75,-2
1606.78,1
1605.82,3
1604.86,6
1603.89,9
1602.93,11
1601.96,9
1601.00,4
1600.03,0
1599.07,-2
1598.11,-4
1597.14,-5
1596.18,-6
1595.21,-7
1594.25,-6
1593.28,-2
1592.32,2
1591.36,2
1590.39,-0
1589.43,-1
1588.46,0
1587.50,-0
1586.53,-5
1585.57,-11
1584.61,-7
1583.64,0
1582.68,2
1581.71,-1
1580.75,-4
1579.79,-6
1578.82,-4
1577.86,2
1576.89,8
1575.93,10
1574.96,9
1574.00,5
1573.04,4
1572.07,3
1571.11,0
1570.14,-3
1569.18,-2
1568.21,1
1567.25,2
1566.29,-0
1565.32,-1
1564.36,1
1563.39,5
1562.43,5
1561.46,2
1560.50,-1
1559.54,-0
1558.57,1
1557.61,-1
1556.64,-2
1555.68,-1
1554.72,1
1553.75,2
1552.79,1
1551.82,2
1550.86,4
1549.89,6
1548.93,5
1547.97,1
1547.00,-2
1546.04,-3
1545.07,-5
1544.11,-7
1543.14,-7
1542.18,-5
1541.22,-2
1540.25,-1
1539.29,-1
1538.32,-2
1537.36,-4
1536.39,-5
1535.43,-3
1534.47,0
1533.50,1
1532.54,1
1531.57,2
1530.61,5
1529.64,6
1528.68,4
1527.72,2
1526.75,1
1525.79,3
1524.82,5
1523.86,6
1522.90,4
1521.93,1
1520.97,-2
1520.00,-4
1519.04,-5
1518.07,-4
1517.11,-2
1516.15,0
1515.18,2
1514.22,4
1513.25,6
1512.29,8
1511.32,10
1510.36,9
1509.40,7
1508.43,9
1507.47,16
1506.50,17
1505.54,14
1504.57,13
1503.61,13
1502.65,13
1501.68,14
1500.72,16
1499.75,17
1498.79,15
1497.83,13
1496.86,13
1495.90,18
1494.93,30
1493.97,39
1493.00,38
1492.04,31
1491.08,28
1490.11,29
1489.15,32
1488.18,34
1487.22,34
1486.25,35
1485.29,37
1484.33,39
1483.36,41
1482.40,44
1481.43,52
1480.47,61
1479.50,64
1478.54,65
1477.58,70
1476.61,82
1475.65,93
1474.68,94
1473.72,92
1472.76,100
1471.79,112
1470.83,124
1469.86,136
1468.90,151
1467.93,167
1466.97,182
1466.01,198
1465.04,213
1464.08,228
1463.11,240
1462.15,252
1461.18,259
1460.22,261
1459.26,263
1458.29,265
1457.33,269
1456.36,272
1455.40,274
1454.43,272
1453.47,268
1452.51,263
1451.54,261
1450.58,261
1449.61,265
1448.65,270
1447.69,274
1446.72,278
1445.76,282
1444.79,291
1443.83,308
1442.86,331
1441.90,359
1440.94,391
1439.97,421
1439.01,439
1438.04,449
1437.08,450
1436.11,441
1435.15,420
1434.19,387
1433.22,346
1432.26,310
1431.29,279
1430.33,251
1429.36,227
1428.40,207
1427.44,188
1426.47,171
1425.51,163
1424.54,158
1423.58,156
1422.62,160
1421.65,171
1420.69,191
1419.72,217
1418.76,246
1417.79,273
1416.83,296
1415.87,307
1414.90,306
1413.94,276
1412.97,229
1412.01,189
1411.04,151
1410.08,117
1409.12,90
1408.15,69
1407.19,56
1406.22,51
1405.26,50
1404.29,51
1403.33,50
1402.37,49
1401.40,46
1400.44,41
1399.47,35
1398.51,37
1397.55,46
1396.58,53
1395.62,49
1394.65,42
1393.69,42
1392.72,46
1391.76,48
1390.80,47
1389.83,44
1388.87,42
1387.90,42
1386.94,43
1385.97,44
1385.01,43
1384.05,41
1383.08,43
1382.12,45
1381.15,47
1380.19,52
1379.22,59
1378.26,63
1377.30,63
1376.33,63
1375.37,65
1374.40,68
1373.44,72
1372.47,78
1371.51,84
1370.55,90
1369.58,94
1368.62,95
1367.65,94
1366.69,93
1365.73,89
1364.76,85
1363.80,82
1362.83,79
1361.87,76
1360.90,74
1359.94,72
1358.98,67
1358.01,62
1357.05,59
1356.08,59
1355.12,58
1354.15,56
1353.19,55
1352.23,55
1351.26,54
1350.30,50
1349.33,45
1348.37,41
1347.40,37
1346.44,36
1345.48,39
1344.51,43
1343.55,45
1342.58,44
1341.62,42
1340.66,39
1339.69,35
1338.73,33
1337.76,32
1336.80,32
1335.83,35
1334.87,37
1333.91,37
1332.94,35
1331.98,39
1331.01,47
1330.05,49
1329.08,47
1328.12,48
1327.16,53
1326.19,58
1325.23,58
1324.26,53
1323.30,52
1322.33,61
1321.37,71
1320.41,70
1319.44,64
1318.48,65
1317.51,71
1316.55,74
1315.59,72
1314.62,84
1313.66,147
1312.69,239
1311.73,244
1310.76,163
1309.80,101
1308.84,93
1307.87,111
1306.91,121
1305.94,122
1304.98,127
1304.01,141
1303.05,155
1302.09,168
1301.12,181
1300.16,208
1299.19,246
1298.23,309
1297.26,398
1296.30,501
1295.34,609
1294.37,714
1293.41,773
1292.44,762
1291.48,686
1290.52,540
1289.55,368
1288.59,251
1287.62,191
1286.66,154
1285.69,129
1284.73,115
1283.77,94
1282.80,77
1281.84,66
1280.87,63
1279.91,64
1278.94,67
1277.98,69
1277.02,68
1276.05,63
1275.09,59
1274.12,59
1273.16,61
1272.19,61
1271.23,60
1270.27,56
1269.30,51
1268.34,47
1267.37,48
1266.41,49
1265.45,44
1264.48,38
1263.52,36
1262.55,37
1261.59,36
1260.62,37
1259.66,37
1258.70,35
1257.73,30
1256.77,27
1255.80,26
1254.84,24
1253.87,18
1252.91,10
1251.95,5
1250.98,3
1250.02,2
1249.05,1
1248.09,1
1247.12,2
1246.16,5
1245.20,6
1244.23,5
1243.27,5
1242.30,5
1241.34,6
1240.38,6
1239.41,5
1238.45,4
1237.48,2
1236.52,3
1235.55,3
1234.59,2
1233.63,1
1232.66,1
1231.70,-0
1230.73,-1
1229.77,-2
1228.80,-3
1227.84,-5
1226.88,-6
1225.91,-7
1224.95,-8
1223.98,-6
1223.02,-3
1222.05,0
1221.09,3
1220.13,6
1219.16,8
1218.20,7
1217.23,5
1216.27,4
1215.30,3
1214.34,1
1213.38,-1
1212.41,-4
1211.45,-6
1210.48,-9
1209.52,-11
1208.56,-9
1207.59,-2
1206.63,5
1205.66,7
1204.70,4
1203.73,2
1202.77,6
1201.81,12
1200.84,15
1199.88,16
1198.91,13
1197.95,11
1196.98,9
1196.02,8
1195.06,6
1194.09,3
1193.13,-0
1192.16,-4
1191.20,-7
1190.23,-7
1189.27,-5
1188.31,-3
1187.34,-1
1186.38,-1
1185.41,-0
1184.45,0
1183.49,-0
1182.52,-1
1181.56,-4
1180.59,-4
1179.63,-0
1178.66,5
1177.70,9
1176.74,8
1175.77,7
1174.81,8
1173.84,9
1172.88,11
1171.91,13
1170.95,18
1169.99,27
1169.02,37
1168.06,44
1167.09,50
1166.13,49
1165.16,40
1164.20,31
1163.24,21
1162.27,12
1161.31,8
1160.34,7
1159.38,8
1158.42,7
1157.45,5
1156.49,2
1155.52,-2
1154.56,-1
1153.59,3
1152.63,5
1151.67,1
1150.70,-4
1149.74,-7
1148.77,-5
1147.81,-3
1146.84,-2
1145.88,-0
1144.92,2
1143.95,4
1142.99,6
1142.02,6
1141.06,7
1140.09,15
1139.13,24
1138.17,31
1137.20,37
1136.24,45
1135.27,56
1134.31,71
1133.35,103
1132.38,148
1131.42,202
1130.45,267
1129.49,336
1128.52,405
1127.56,463
1126.60,494
1125.63,480
1124.67,437
1123.70,372
1122.74,290
1121.77,225
1120.81,177
1119.85,137
1118.88,104
1117.92,80
1116.95,63
1115.99,53
1115.02,46
1114.06,42
1113.10,41
1112.13,38
1111.17,34
1110.20,30
1109.24,27
1108.28,28
1107.31,31
1106.35,34
1105.38,33
1104.42,26
1103.45,18
1102.49,12
1101.53,10
1100.56,12
1099.60,19
1098.63,24
1097.67,25
1096.70,23
1095.74,21
1094.78,19
1093.81,18
1092.85,18
1091.88,22
1090.92,26
1089.95,31
1088.99,35
1088.03,39
1087.06,42
1086.10,42
1085.13,41
1084.17,39
1083.21,35
1082.24,34
1081.28,37
1080.31,40
1079.35,41
1078.38,39
1077.42,37
1076.46,36
1075.49,37
1074.53,40
1073.56,42
1072.60,43
1071.63,42
1070.67,42
1069.71,49
1068.74,62
1067.78,86
1066.81,119
1065.85,163
1064.88,219
1063.92,280
1062.96,339
1061.99,391
1061.03,421
1060.06,412
1059.10,379
1058.13,324
1057.17,254
1056.21,186
1055.24,139
1054.28,97
1053.31,67
1052.35,51
1051.39,39
1050.42,33
1049.46,29
1048.49,23
1047.53,16
1046.56,10
1045.60,5
1044.64,2
1043.67,-0
1042.71,-0
1041.74,2
1040.78,6
1039.81,9
1038.85,7
1037.89,1
1036.92,-1
1035.96,-2
1034.99,-3
1034.03,-5
1033.06,-6
1032.10,-6
1031.14,-5
1030.17,-3
1029.21,-3
1028.24,-3
1027.28,-6
1026.32,-10
1025.35,-10
1024.39,-5
1023.42,2
1022.46,1
1021.49,-3
1020.53,-2
1019.57,3
1018.60,4
1017.64,-0
1016.67,-6
1015.71,-7
1014.74,-4
1013.78,-3
1012.82,-7
1011.85,-11
1010.89,-13
1009.92,-12
1008.96,-9
1007.99,-7
1007.03,-6
1006.07,-4
1005.10,-3
1004.14,-4
1003.17,-4
1002.21,-4
1001.25,-1
1000.28,3
999.32,2
998.35,-1
997.39,-3
996.42,-3
995.46,0
994.50,4
993.53,6
992.57,6
991.60,6
990.64,6
989.67,7
988.71,8
987.75,10
986.78,13
985.82,16
984.85,15
983.89,12
982.92,8
981.96,5
981.00,2
980.03,2
979.07,3
978.10,4
977.14,2
976.18,-0
975.21,-0
974.25,1
973.28,1
972.32,-1
971.35,-3
970.39,-2
969.43,0
968.46,5
967.50,9
966.53,10
965.57,4
964.60,-2
963.64,-4
962.68,-4
961.71,-1
960.75,2
959.78,4
958.82,4
957.85,4
956.89,5
955.93,6
954.96,6
954.00,5
953.03,4
952.07,3
951.11,1
950.14,1
949.18,6
948.21,13
947.25,16
946.28,16
945.32,13
944.36,7
943.39,-1
942.43,-7
941.46,-9
940.50,-8
939.53,-5
938.57,-2
937.61,1
936.64,3
935.68,4
934.71,1
933.75,-3
932.78,-4
931.82,-1
930.86,1
929.89,2
928.93,2
927.96,-1
927.00,-4
926.04,-6
925.07,-8
924.11,-8
923.14,-6
922.18,-3
921.21,1
920.25,2
919.29,2
918.32,-1
917.36,-6
916.39,-12
915.43,-16
914.46,-19
913.50,-14
912.54,-5
911.57,1
910.61,1
909.64,0
908.68,-2
907.71,-3
906.75,-3
905.79,-2
904.82,-1
903.86,1
902.89,6
901.93,12
900.96,15
900.00,14
899.04,12
898.07,9
897.11,6
896.14,3
895.18,2
894.22,2
893.25,3
892.29,4
891.32,5
890.36,5
889.39,2
888.43,-3
887.47,-8
886.50,-7
885.54,-2
884.57,0
883.61,6
882.64,9
881.68,6
880.72,-2
879.75,-4
878.79,-3
877.82,-2
876.86,-0
875.89,1
874.93,3
873.97,5
873.00,3
872.04,0
871.07,-1
870.11,-1
869.15,-0
868.18,0
867.22,1
866.25,3
865.29,-0
864.32,-4
863.36,-1
862.40,6
861.43,12
860.47,13
859.50,10
858.54,6
857.57,4
856.61,2
855.65,-1
854.68,-6
853.72,-9
852.75,-9
851.79,-9
850.82,-7
849.86,-1
848.90,4
847.93,6
846.97,7
846.00,2
845.04,-6
844.08,-10
843.11,-9
842.15,-5
841.18,-1
840.22,0
839.25,2
838.29,4
837.33,-8
836.36,-47
835.40,-100
834.43,-129
833.47,-86
832.50,-16
831.54,2
830.58,-1
829.61,-1
828.65,4
827.68,8
826.72,5
825.75,-1
824.79,-4
823.83,-3
822.86,-1
821.90,3
820.93,5
819.97,6
819.01,3
818.04,0
817.08,-4
816.11,-6
815.15,-6
814.18,-3
813.22,3
812.26,4
811.29,2
810.33,-2
809.36,-7
808.40,-12
807.43,-10
806.47,-3
805.51,1
804.54,2
803.58,1
802.61,1
801.65,3
800.68,7
799.72,9
798.76,10
797.79,10
796.83,8
795.86,5
794.90,2
793.94,0
792.97,0
792.01,-1
791.04,-3
790.08,-6
789.11,-8
788.15,-10
787.19,-10
786.22,-7
785.26,-3
784.29,1
783.33,4
782.36,6
781.40,8
780.44,9
779.47,6
778.51,2
777.54,-0
776.58,0
775.61,2
774.65,4
773.69,0
772.72,-8
771.76,-14
770.79,-13
769.83,-6
768.87,-0
767.90,-0
766.94,0
765.97,5
765.01,10
764.04,11
763.08,2
762.12,-10
761.15,-13
760.19,-11
759.22,-10
758.26,-10
757.29,-12
756.33,-13
755.37,-12
754.40,-14
753.44,-15
752.47,-16
751.51,-15
750.54,-13
749.58,-12
748.62,-10
747.65,-9
746.69,-8
745.72,-9
744.76,-11
743.79,-12
742.83,-13
741.87,-14
740.90,-13
739.94,-10
738.97,-5
738.01,0
737.05,1
736.08,-2
735.12,-3
734.15,-3
733.19,-1
732.22,3
731.26,8
730.30,12
729.33,16
728.37,20
727.40,22
726.44,20
725.47,15
724.51,12
723.55,10
722.58,8
721.62,6
720.65,5
719.69,7
718.72,10
717.76,10
716.80,8
715.83,6
714.87,4
713.90,2
712.94,-0
711.98,3
711.01,8
710.05,12
709.08,15
708.12,18
707.15,18
706.19,16
705.23,14
704.26,14
703.30,14
702.33,15
701.37,16
700.40,13
699.44,6
698.48,2
697.51,4
696.55,8
695.58,11
694.62,11
693.65,8
692.69,4
691.73,-1
690.76,-4
689.80,-3
688.83,-3
687.87,-3
686.91,19
685.94,46
684.98,60
684.01,58
683.05,50
682.08,32
681.12,-0
680.16,-19
679.19,-20
678.23,-12
677.26,-6
676.30,-6
675.33,-4
674.37,-3
673.41,-2
672.44,-1
671.48,0
670.51,-0
669.55,-4
668.58,-7
667.62,-9
666.66,-9
665.69,-7
664.73,-3
663.76,1
662.80,2
661.84,1
660.87,0
659.91,0
658.94,0
657.98,2
657.01,3
656.05,3
655.09,3
654.12,3
653.16,1
652.19,-1
651.23,1
650.26,3
649.30,3
648.34,3
647.37,3
646.41,2
645.44,2
644.48,3
643.51,4
642.55,4
641.59,4
640.62,4
639.66,3
638.69,-0
637.73,-2
636.77,0
635.80,4
634.84,9
633.87,12
632.91,13
631.94,14
630.98,16
630.02,17
629.05,13
628.09,7
627.12,5
626.16,4
625.19,3
624.23,2
623.27,0
622.30,-1
621.34,-1
620.37,1
619.41,2
618.44,1
617.48,-1
616.52,-5
615.55,-8
614.59,-8
613.62,-4
612.66,-0
611.70,-1
610.73,-5
609.77,-6
608.80,-5
607.84,-4
606.87,-3
605.91,-3
604.95,-3
603.98,-1
603.02,1
602.05,3
601.09,4
600.12,5
599.16,1
598.20,-5
597.23,-8
596.27,-8
595.30,-7
594.34,-9
593.37,-12
592.41,-12
591.45,-11
590.48,-10
589.52,-9
588.55,-9
587.59,-9
586.62,-8
585.66,-5
584.70,-3
583.73,-1
582.77,1
581.80,1
580.84,-2
579.88,-3
578.91,-3
577.95,-2
576.98,-3
576.02,-2
575.05,-0
574.09,1
573.13,0
572.16,-1
571.20,-3
570.23,-5
569.27,-6
568.30,-7
567.34,-7
566.38,-6
565.41,-5
564.45,-3
563.48,-2
562.52,0
561.55,3
560.59,3
559.63,-0
558.66,-4
557.70,-4
556.73,-1
555.77,3
554.81,5
553.84,1
552.88,-1
551.91,-1
550.95,1
549.98,2
549.02,3
548.06,4
547.09,5
546.13,5
545.16,4
544.20,2
543.23,1
542.27,1
541.31,-0
540.34,-1
539.38,-1
538.41,-1
537.45,-3
536.48,-3
535.52,-3
534.56,-1
533.59,1
532.63,3
531.66,3
530.70,2
529.74,1
528.77,1
527.81,1
526.84,0
525.88,-1
524.91,-0
523.95,2
522.99,3
522.02,4
521.06,4
520.09,2
519.13,-1
518.16,-4
517.20,-4
516.24,-3
515.27,-4
514.31,-6
513.34,-7
512.38,-4
511.41,0
510.45,2
509.49,2
508.52,2
507.56,-0
506.59,-3
505.63,-4
504.67,0
503.70,5
502.74,5
501.77,2
500.81,-1
499.84,-3
498.88,-5
497.92,-6
496.95,-5
495.99,-3
495.02,-1
494.06,-1
493.09,-1
492.13,-2
491.17,-3
490.20,-5
489.24,-7
488.27,-8
487.31,-4
486.34,3
485.38,7
484.42,7
483.45,6
482.49,8
481.52,12
480.56,15
479.60,15
478.63,12
477.67,8
476.70,4
475.74,-0
474.77,-2
473.81,-2
472.85,-2
471.88,-2
470.92,-2
469.95,0
468.99,3
468.02,5
467.06,4
466.10,1
465.13,-2
464.17,-6
463.20,-6
462.24,-1
461.27,10
460.31,14
459.35,13
458.38,10
457.42,9
456.45,11
455.49,15
454.53,18
453.56,18
452.60,18
451.63,17
450.67,16
449.70,15
448.74,13
447.78,15
446.81,19
445.85,24
444.88,24
443.92,22
442.95,20
441.99,20
441.03,20
440.06,19
439.10,16
438.13,12
437.17,9
436.20,6
435.24,4
434.28,2
433.31,-0
432.35,-1
431.38,0
430.42,3
429.45,4
428.49,5
427.53,5
426.56,4
425.60,1
424.63,-2
423.67,-1
422.71,-1
421.74,0
420.78,1
419.81,2
418.85,5
417.88,7
416.92,5
415.96,1
414.99,-2
414.03,-3
413.06,-2
412.10,-2
411.13,-3
410.17,-3
409.21,-3
408.24,-3
407.28,-2
406.31,-2
405.35,-1
404.38,2
403.42,7
402.46,10
401.49,10
400.53,9
399.56,7
398.60,5
397.64,2
396.67,1
395.71,1
394.74,3
393.78,5
392.81,6
391.85,10
390.89,12
389.92,12
388.96,9
387.99,5
387.03,6
386.06,8
385.10,10
384.14,10
383.17,7
382.21,4
381.24,2
380.28,1
379.31,1
378.35,2
377.39,3
376.42,1
375.46,-2
374.49,-4
373.53,-5
372.57,-8
371.60,-11
370.64,-13
369.67,-14
368.71,-15
367.74,-15
366.78,-13
365.82,-9
364.85,-6
363.89,-4
362.92,-5
361.96,-7
360.99,-9
360.03,-11
359.07,-13
358.10,-15
357.14,-13
356.17,-9
355.21,-4
354.24,1
353.28,3
352.32,1
351.35,-4
350.39,-9
349.42,-12
348.46,-12
347.50,-10
346.53,-6
345.57,-3
344.60,-2
343.64,-1
342.67,0
341.71,0
340.75,-0
339.78,-1
338.82,-1
337.85,-1
336.89,-2
335.92,-3
334.96,-5
334.00,-7
333.03,-7
332.07,-5
331.10,-6
330.14,-9
329.17,-9
328.21,-7
327.25,-2
326.28,3
325.32,7
324.35,8
323.39,7
322.43,3
321.46,1
320.50,3
319.53,4
318.57,5
317.60,3
316.64,1
315.68,-0
314.71,-1
313.75,-2
312.78,-2
311.82,-3
310.85,-2
309.89,-0
308.93,0
307.96,-2
307.00,-8
306.03,-13
305.07,-14
304.10,-12
303.14,-8
302.18,-4
301.21,-3
300.25,-3
299.28,-4
298.32,-5
297.36,-8
296.39,-9
295.43,-6
294.46,0
293.50,4
292.53,3
291.57,-2
290.61,-4
289.64,-3
288.68,1
287.71,4
286.75,5
285.78,6
284.82,8
283.86,9
282.89,10
281.93,8
280.96,6
280.00,6
279.03,8
278.07,9
277.11,6
276.14,2
275.18,0
274.21,-0
273.25,0
272.28,2
271.32,5
270.36,7
269.39,7
268.43,6
267.46,6
266.50,8
265.54,9
264.57,7
263.61,3
262.64,-2
261.68,-3
260.71,-2
259.75,1
258.79,6
257.82,9
256.86,9
255.89,6
254.93,2
253.96,-0
253.00,-2
252.04,-0
251.07,3
250.11,6
249.14,7
248.18,5
247.21,4
246.25,4
245.29,4
244.32,3
243.36,0
242.39,-3
241.43,-3
240.47,-1
239.50,1
238.54,3
237.57,4
236.61,4
235.64,2
234.68,1
233.72,1
232.75,3
231.79,5
230.82,9
229.86,15
228.89,26
227.93,45
226.97,61
226.00,68
225.04,64
224.07,54
223.11,42
222.14,29
221.18,16
220.22,6
219.25,-3
218.29,-8
217.32,-9
216.36,-8
215.40,-6
214.43,-5
213.47,-7
212.50,-10
211.54,-11
210.57,-10
209.61,-6
208.65,-2
207.68,0
206.72,0
205.75,-4
204.79,-9
203.82,-11
202.86,-8
201.90,-4
200.93,0
199.97,1
199.00,-1
198.04,-1
197.07,2
196.11,5
195.15,6
194.18,6
193.22,5
192.25,5
191.29,5
190.33,5
189.36,4
188.40,3
187.43,1
186.47,1
185.50,1
184.54,3
183.58,3
182.61,2
181.65,0
180.68,-3
179.72,-5
178.75,-4
177.79,-3
176.83,-2
175.86,-3
174.90,-2
173.93,-0
172.97,2
172.00,4
171.04,4
170.08,3
169.11,2
168.15,-0
167.18,-3
166.22,-7
165.26,-10
164.29,-11
163.33,-9
162.36,-6
161.40,-5
160.43,-4
159.47,-2
158.51,2
157.54,7
156.58,7
155.61,2
154.65,-3
153.68,-6
152.72,-6
151.76,-6
150.79,-7
149.83,-8
148.86,-7
147.90,-6
146.93,-5
145.97,-4
145.01,-3
144.04,-3
143.08,-5
142.11,-6
141.15,-6
140.19,-5
139.22,-2
138.26,0
137.29,2
136.33,3
135.36,3
134.40,-2
133.44,-6
132.47,-8
131.51,-8
130.54,-5
129.58,-2
128.61,3
127.65,6
126.69,7
125.72,5
124.76,1
123.79,-3
122.83,-5
121.86,-5
120.90,-3
119.94,-0
118.97,2
118.01,4
117.04,5
116.08,4
115.11,1
114.15,0
113.19,-2
112.22,-3
111.26,-4
110.29,-4
109.33,-2
108.37,1
107.40,4
106.44,2
105.47,1
104.51,0
103.54,2
102.58,5
101.62,4
100.65,2
99.69,1
98.72,3
97.76,7
96.79,7
95.83,8
94.87,8
93.90,9
92.94,10
91.97,10
91.01,8
90.04,0
89.08,0
88.12,-2
87.15,-3
86.19,-3
85.22,-0
84.26,3
83.30,3
82.33,0
81.37,-2
80.40,-3
79.44,-4
78.47,-5
77.51,-4
76.55,-4
