Created As Omnic File,BIOL 014
Raman Shift / cm-1,INT
3418.58,24
3417.61,26
3416.65,19
3415.68,10
3414.72,9
3413.76,13
3412.79,16
3411.83,14
3410.86,6
3409.90,1
3408.94,7
3407.97,11
3407.01,7
3406.04,6
3405.08,11
3404.11,21
3403.15,30
3402.19,30
3401.22,21
3400.26,15
3399.29,15
3398.33,5
3397.36,-1
3396.40,6
3395.44,12
3394.47,17
3393.51,15
3392.54,10
3391.58,15
3390.61,28
3389.65,27
3388.69,11
3387.72,10
3386.76,14
3385.79,9
3384.83,5
3383.87,0
3382.90,2
3381.94,14
3380.97,15
3380.01,-2
3379.04,-17
3378.08,-18
3377.12,-9
3376.15,8
3375.19,21
3374.22,28
3373.26,28
3372.29,20
3371.33,11
3370.37,1
3369.40,-8
3368.44,-11
3367.47,-8
3366.51,-5
3365.54,1
3364.58,1
3363.62,-4
3362.65,-8
3361.69,-12
3360.72,-18
3359.76,-19
3358.80,-10
3357.83,1
3356.87,0
3355.90,-3
3354.94,-4
3353.97,-8
3353.01,-14
3352.05,-20
3351.08,-18
3350.12,-13
3349.15,-9
3348.19,-4
3347.22,3
3346.26,1
3345.30,-1
3344.33,5
3343.37,1
3342.40,-8
3341.44,-10
3340.47,-2
3339.51,8
3338.55,10
3337.58,1
3336.62,-11
3335.65,-11
3334.69,1
3333.73,0
3332.76,-7
3331.80,-7
3330.83,-10
3329.87,-20
3328.90,-34
3327.94,-37
3326.98,-28
3326.01,-23
3325.05,-16
3324.08,-9
3323.12,-12
3322.15,-15
3321.19,-9
3320.23,-1
3319.26,-4
3318.30,-12
3317.33,-16
3316.37,-18
3315.40,-12
3314.44,0
3313.48,-3
3312.51,-9
3311.55,-8
3310.58,-11
3309.62,-13
3308.66,-7
3307.69,2
3306.73,7
3305.76,8
3304.80,2
3303.83,-7
3302.87,-7
3301.91,0
3300.94,-4
3299.98,-5
3299.01,4
3298.05,12
3297.08,11
3296.12,3
3295.16,2
3294.19,13
3293.23,21
3292.26,27
3291.30,25
3290.33,6
3289.37,-14
3288.41,-14
3287.44,-7
3286.48,-17
3285.51,-31
3284.55,-22
3283.59,-1
3282.62,8
3281.66,7
3280.69,3
3279.73,-0
3278.76,0
3277.80,-5
3276.84,-17
3275.87,-25
3274.91,-23
3273.94,-17
3272.98,-14
3272.01,-15
3271.05,-12
3270.09,1
3269.12,15
3268.16,-2
3267.19,-31
3266.23,-34
3265.26,-22
3264.30,-8
3263.34,3
3262.37,7
3261.41,9
3260.44,10
3259.48,7
3258.51,-3
3257.55,-6
3256.59,5
3255.62,5
3254.66,0
3253.69,-6
3252.73,-11
3251.77,-9
3250.80,-4
3249.84,-8
3248.87,-14
3247.91,-8
3246.94,3
3245.98,9
3245.02,9
3244.05,6
3243.09,4
3242.12,4
3241.16,-3
3240.19,-15
3239.23,-12
3238.27,6
3237.30,17
3236.34,11
3235.37,4
3234.41,4
3233.44,2
3232.48,4
3231.52,7
3230.55,11
3229.59,15
3228.62,15
3227.66,6
3226.70,-7
3225.73,-19
3224.77,-20
3223.80,-7
3222.84,0
3221.87,-0
3220.91,-2
3219.95,-3
3218.98,0
3218.02,2
3217.05,-2
3216.09,-6
3215.12,1
3214.16,15
3213.20,11
3212.23,-6
3211.27,-6
3210.30,-3
3209.34,-7
3208.37,-10
3207.41,-7
3206.45,-5
3205.48,-10
3204.52,-15
3203.55,-8
3202.59,3
3201.63,12
3200.66,13
3199.70,2
3198.73,-6
3197.77,-7
3196.80,-8
3195.84,-6
3194.88,5
3193.91,14
3192.95,11
3191.98,-2
3191.02,-12
3190.05,-17
3189.09,-11
3188.13,-2
3187.16,-0
3186.20,3
3185.23,11
3184.27,14
3183.30,12
3182.34,8
3181.38,5
3180.41,3
3179.45,-3
3178.48,-8
3177.52,-8
3176.56,5
3175.59,21
3174.63,15
3173.66,-6
3172.70,-23
3171.73,-23
3170.77,-4
3169.81,15
3168.84,20
3167.88,15
3166.91,4
3165.95,-5
3164.98,-18
3164.02,-27
3163.06,-19
3162.09,-3
3161.13,2
3160.16,-0
3159.20,-4
3158.23,-14
3157.27,-15
3156.31,-6
3155.34,6
3154.38,17
3153.41,11
3152.45,-6
3151.49,-17
3150.52,-17
3149.56,-13
3148.59,-8
3147.63,-3
3146.66,1
3145.70,8
3144.74,9
3143.77,3
3142.81,7
3141.84,13
3140.88,15
3139.91,12
3138.95,8
3137.99,6
3137.02,2
3136.06,-4
3135.09,-8
3134.13,-9
3133.16,-6
3132.20,1
3131.24,3
3130.27,-2
3129.31,-7
3128.34,-5
3127.38,1
3126.42,-7
3125.45,-19
3124.49,-6
3123.52,20
3122.56,25
3121.59,13
3120.63,-5
3119.67,-14
3118.70,-16
3117.74,-17
3116.77,-15
3115.81,-12
3114.84,-19
3113.88,-27
3112.92,-28
3111.95,-19
3110.99,6
3110.02,18
3109.06,0
3108.09,-17
3107.13,-27
3106.17,-36
3105.20,-35
3104.24,-29
3103.27,-25
3102.31,-17
3101.34,-9
3100.38,-8
3099.42,-7
3098.45,-10
3097.49,-14
3096.52,-15
3095.56,-16
3094.60,-17
3093.63,-19
3092.67,-22
3091.70,-20
3090.74,-24
3089.77,-28
3088.81,-17
3087.85,-9
3086.88,-13
3085.92,-21
3084.95,-25
3083.99,-20
3083.02,-9
3082.06,-7
3081.10,-22
3080.13,-31
3079.17,-18
3078.20,-9
3077.24,-16
3076.27,-21
3075.31,-27
3074.35,-22
3073.38,-8
3072.42,-14
3071.45,-28
3070.49,-31
3069.53,-26
3068.56,-15
3067.60,-0
3066.63,2
3065.67,-5
3064.70,-9
3063.74,-17
3062.78,-24
3061.81,-27
3060.85,-23
3059.88,-11
3058.92,0
3057.95,7
3056.99,6
3056.03,-7
3055.06,-14
3054.10,-11
3053.13,-6
3052.17,-2
3051.20,-8
3050.24,-19
3049.28,-19
3048.31,-19
3047.35,-27
3046.38,-28
3045.42,-24
3044.46,-27
3043.49,-35
3042.53,-37
3041.56,-26
3040.60,-11
3039.63,-2
3038.67,2
3037.71,7
3036.74,12
3035.78,13
3034.81,-1
3033.85,-24
3032.88,-31
3031.92,-14
3030.96,2
3029.99,-0
3029.03,-4
3028.06,-2
3027.10,7
3026.13,15
3025.17,5
3024.21,-17
3023.24,-18
3022.28,-5
3021.31,-7
3020.35,-23
3019.39,-28
3018.42,-16
3017.46,-6
3016.49,2
3015.53,17
3014.56,28
3013.60,33
3012.64,32
3011.67,14
3010.71,-8
3009.74,-15
3008.78,-15
3007.81,-8
3006.85,-0
3005.89,-1
3004.92,2
3003.96,7
3002.99,5
3002.03,-1
3001.06,-5
3000.10,-6
2999.14,-2
2998.17,5
2997.21,6
2996.24,4
2995.28,1
2994.32,-3
2993.35,0
2992.39,-1
2991.42,-6
2990.46,1
2989.49,17
2988.53,31
2987.57,35
2986.60,21
2985.64,7
2984.67,5
2983.71,5
2982.74,8
2981.78,21
2980.82,34
2979.85,39
2978.89,38
2977.92,37
2976.96,38
2975.99,45
2975.03,57
2974.07,67
2973.10,71
2972.14,63
2971.17,51
2970.21,53
2969.25,64
2968.28,71
2967.32,78
2966.35,86
2965.39,90
2964.42,98
2963.46,101
2962.50,81
2961.53,64
2960.57,62
2959.60,61
2958.64,62
2957.67,62
2956.71,60
2955.75,64
2954.78,72
2953.82,63
2952.85,42
2951.89,37
2950.92,59
2949.96,80
2949.00,87
2948.03,79
2947.07,57
2946.10,43
2945.14,37
2944.17,28
2943.21,25
2942.25,30
2941.28,36
2940.32,38
2939.35,39
2938.39,39
2937.43,39
2936.46,36
2935.50,28
2934.53,28
2933.57,37
2932.60,42
2931.64,34
2930.68,16
2929.71,-3
2928.75,-8
2927.78,3
2926.82,17
2925.85,21
2924.89,11
2923.93,0
2922.96,-4
2922.00,-1
2921.03,2
2920.07,0
2919.10,1
2918.14,11
2917.18,25
2916.21,32
2915.25,18
2914.28,-5
2913.32,-14
2912.36,-10
2911.39,-7
2910.43,-7
2909.46,-6
2908.50,3
2907.53,23
2906.57,40
2905.61,35
2904.64,16
2903.68,9
2902.71,21
2901.75,44
2900.78,55
2899.82,45
2898.86,35
2897.89,38
2896.93,48
2895.96,53
2895.00,46
2894.03,36
2893.07,30
2892.11,30
2891.14,38
2890.18,47
2889.21,49
2888.25,49
2887.29,54
2886.32,70
2885.36,93
2884.39,104
2883.43,96
2882.46,89
2881.50,92
2880.54,93
2879.57,106
2878.61,135
2877.64,143
2876.68,135
2875.71,130
2874.75,126
2873.79,133
2872.82,147
2871.86,155
2870.89,149
2869.93,142
2868.96,145
2868.00,161
2867.04,183
2866.07,196
2865.11,186
2864.14,183
2863.18,207
2862.22,220
2861.25,203
2860.29,185
2859.32,190
2858.36,203
2857.39,209
2856.43,207
2855.47,208
2854.50,209
2853.54,196
2852.57,180
2851.61,168
2850.64,151
2849.68,134
2848.72,127
2847.75,125
2846.79,118
2845.82,108
2844.86,104
2843.89,105
2842.93,105
2841.97,103
2841.00,96
2840.04,80
2839.07,68
2838.11,59
2837.15,40
2836.18,15
2835.22,2
2834.25,4
2833.29,7
2832.32,9
2831.36,13
2830.40,12
2829.43,9
2828.47,8
2827.50,11
2826.54,24
2825.57,20
2824.61,-11
2823.65,-30
2822.68,-13
2821.72,19
2820.75,38
2819.79,43
2818.82,33
2817.86,16
2816.90,3
2815.93,-7
2814.97,-12
2814.00,-4
2813.04,4
2812.08,0
2811.11,-2
2810.15,2
2809.18,7
2808.22,13
2807.25,13
2806.29,6
2805.33,4
2804.36,4
2803.40,1
2802.43,-3
2801.47,-6
2800.50,-7
2799.54,-4
2798.58,-2
2797.61,-7
2796.65,-14
2795.68,-13
2794.72,-8
2793.75,-7
2792.79,-5
2791.83,-2
2790.86,-1
2789.90,1
2788.93,-0
2787.97,-8
2787.00,-6
2786.04,11
2785.08,27
2784.11,30
2783.15,20
2782.18,-4
2781.22,-20
2780.26,-15
2779.29,-6
2778.33,-6
2777.36,-4
2776.40,6
2775.43,7
2774.47,-2
2773.51,3
2772.54,19
2771.58,27
2770.61,23
2769.65,8
2768.68,-4
2767.72,-2
2766.76,8
2765.79,11
2764.83,3
2763.86,-1
2762.90,12
2761.93,26
2760.97,29
2760.01,30
2759.04,30
2758.08,29
2757.11,30
2756.15,26
2755.19,20
2754.22,17
2753.26,11
2752.29,12
2751.33,28
2750.36,51
2749.40,70
2748.44,78
2747.47,71
2746.51,51
2745.54,22
2744.58,0
2743.61,6
2742.65,24
2741.69,33
2740.72,31
2739.76,27
2738.79,21
2737.83,12
2736.86,2
2735.90,-11
2734.94,-21
2733.97,-12
2733.01,3
2732.04,1
2731.08,-8
2730.12,-9
2729.15,0
2728.19,14
2727.22,30
2726.26,44
2725.29,49
2724.33,39
2723.37,22
2722.40,11
2721.44,2
2720.47,-12
2719.51,-22
2718.54,-9
2717.58,17
2716.62,33
2715.65,29
2714.69,23
2713.72,23
2712.76,18
2711.79,9
2710.83,-7
2709.87,-29
2708.90,-32
2707.94,-29
2706.97,-30
2706.01,-28
2705.05,-29
2704.08,-22
2703.12,2
2702.15,25
2701.19,25
2700.22,-0
2699.26,-22
2698.30,-21
2697.33,-11
2696.37,-4
2695.40,-4
2694.44,-16
2693.47,-26
2692.51,-27
2691.55,-15
2690.58,9
2689.62,26
2688.65,14
2687.69,-6
2686.72,-7
2685.76,6
2684.80,16
2683.83,21
2682.87,27
2681.90,20
2680.94,-1
2679.98,-15
2679.01,-15
2678.05,-6
2677.08,9
2676.12,19
2675.15,8
2674.19,-16
2673.23,-18
2672.26,-10
2671.30,-14
2670.33,-18
2669.37,-20
2668.40,-26
2667.44,-34
2666.48,-36
2665.51,-24
2664.55,-7
2663.58,-3
2662.62,-10
2661.65,-12
2660.69,-5
2659.73,-9
2658.76,-18
2657.80,-2
2656.83,24
2655.87,26
2654.91,9
2653.94,-3
2652.98,-0
2652.01,2
2651.05,-3
2650.08,-5
2649.12,-3
2648.16,-7
2647.19,-10
2646.23,-11
2645.26,-9
2644.30,-5
2643.33,2
2642.37,17
2641.41,35
2640.44,42
2639.48,31
2638.51,11
2637.55,-3
2636.58,-6
2635.62,-10
2634.66,-16
2633.69,-20
2632.73,-28
2631.76,-44
2630.80,-48
2629.83,-28
2628.87,7
2627.91,41
2626.94,52
2625.98,31
2625.01,-3
2624.05,-23
2623.09,-26
2622.12,-17
2621.16,-12
2620.19,-18
2619.23,-24
2618.26,-19
2617.30,-13
2616.34,-16
2615.37,-27
2614.41,-31
2613.44,-27
2612.48,-31
2611.51,-41
2610.55,-34
2609.59,-6
2608.62,6
2607.66,-9
2606.69,-24
2605.73,-31
2604.76,-27
2603.80,-12
2602.84,-4
2601.87,-13
2600.91,-22
2599.94,-17
2598.98,-13
2598.02,-17
2597.05,-20
2596.09,-10
2595.12,2
2594.16,0
2593.19,-5
2592.23,-3
2591.27,3
2590.30,9
2589.34,13
2588.37,12
2587.41,7
2586.44,0
2585.48,-9
2584.52,-10
2583.55,-12
2582.59,-21
2581.62,-18
2580.66,-7
2579.69,2
2578.73,4
2577.77,-6
2576.80,-22
2575.84,-27
2574.87,-16
2573.91,7
2572.95,28
2571.98,29
2571.02,9
2570.05,-12
2569.09,-11
2568.12,11
2567.16,35
2566.20,42
2565.23,29
2564.27,8
2563.30,-4
2562.34,7
2561.37,31
2560.41,41
2559.45,34
2558.48,17
2557.52,0
2556.55,-2
2555.59,6
2554.62,16
2553.66,17
2552.70,7
2551.73,-6
2550.77,-17
2549.80,-28
2548.84,-32
2547.88,-28
2546.91,-19
2545.95,-9
2544.98,-4
2544.02,8
2543.05,22
2542.09,26
2541.13,20
2540.16,4
2539.20,-8
2538.23,-5
2537.27,8
2536.30,12
2535.34,6
2534.38,2
2533.41,1
2532.45,0
2531.48,-1
2530.52,-4
2529.55,-4
2528.59,5
2527.63,19
2526.66,24
2525.70,20
2524.73,14
2523.77,3
2522.81,-13
2521.84,-22
2520.88,-20
2519.91,-9
2518.95,-1
2517.98,-11
2517.02,-18
2516.06,-9
2515.09,-3
2514.13,1
2513.16,15
2512.20,29
2511.23,24
2510.27,7
2509.31,-4
2508.34,-5
2507.38,6
2506.41,16
2505.45,10
2504.48,-7
2503.52,-16
2502.56,-8
2501.59,6
2500.63,18
2499.66,24
2498.70,20
2497.74,17
2496.77,31
2495.81,45
2494.84,39
2493.88,15
2492.91,-3
2491.95,-12
2490.99,-9
2490.02,3
2489.06,18
2488.09,23
2487.13,12
2486.16,-6
2485.20,-19
2484.24,-18
2483.27,-2
2482.31,14
2481.34,20
2480.38,15
2479.41,5
2478.45,1
2477.49,0
2476.52,-10
2475.56,-21
2474.59,-22
2473.63,-14
2472.66,-13
2471.70,-23
2470.74,-29
2469.77,-24
2468.81,-16
2467.84,-4
2466.88,12
2465.92,23
2464.95,23
2463.99,16
2463.02,11
2462.06,6
2461.09,-1
2460.13,-7
2459.17,-10
2458.20,-8
2457.24,-8
2456.27,-17
2455.31,-21
2454.34,-7
2453.38,12
2452.42,17
2451.45,8
2450.49,1
2449.52,5
2448.56,8
2447.59,10
2446.63,7
2445.67,2
2444.70,8
2443.74,33
2442.77,71
2441.81,102
2440.85,109
2439.88,101
2438.92,86
2437.95,70
2436.99,62
2436.02,61
2435.06,58
2434.10,46
2433.13,39
2432.17,52
2431.20,72
2430.24,78
2429.27,72
2428.31,54
2427.35,29
2426.38,15
2425.42,8
2424.45,-4
2423.49,-13
2422.52,-2
2421.56,28
2420.60,54
2419.63,62
2418.67,56
2417.70,45
2416.74,39
2415.78,35
2414.81,17
2413.85,-12
2412.88,-38
2411.92,-46
2410.95,-27
2409.99,6
2409.03,23
2408.06,13
2407.10,-11
2406.13,-34
2405.17,-41
2404.20,-30
2403.24,-12
2402.28,-1
2401.31,-2
2400.35,-5
2399.38,3
2398.42,12
2397.45,15
2396.49,13
2395.53,7
2394.56,-4
2393.60,-15
2392.63,-22
2391.67,-23
2390.71,-20
2389.74,-12
2388.78,3
2387.81,21
2386.85,30
2385.88,22
2384.92,5
2383.96,-9
2382.99,-19
2382.03,-25
2381.06,-16
2380.10,11
2379.13,39
2378.17,64
2377.21,82
2376.24,80
2375.28,55
2374.31,21
2373.35,-9
2372.38,-25
2371.42,-25
2370.46,-13
2369.49,3
2368.53,14
2367.56,16
2366.60,19
2365.64,31
2364.67,40
2363.71,26
2362.74,2
2361.78,-8
2360.81,-8
2359.85,2
2358.89,12
2357.92,5
2356.96,-12
2355.99,-16
2355.03,-1
2354.06,21
2353.10,32
2352.14,23
2351.17,3
2350.21,-14
2349.24,-6
2348.28,17
2347.31,39
2346.35,49
2345.39,37
2344.42,11
2343.46,-6
2342.49,-7
2341.53,-4
2340.57,2
2339.60,10
2338.64,12
2337.67,15
2336.71,17
2335.74,8
2334.78,2
2333.82,2
2332.85,-2
2331.89,-2
2330.92,5
2329.96,17
2328.99,32
2328.03,42
2327.07,43
2326.10,46
2325.14,48
2324.17,40
2323.21,31
2322.24,23
2321.28,10
2320.32,3
2319.35,6
2318.39,14
2317.42,23
2316.46,28
2315.49,28
2314.53,28
2313.57,31
2312.60,34
2311.64,28
2310.67,18
2309.71,10
2308.75,7
2307.78,8
2306.82,5
2305.85,-8
2304.89,-18
2303.92,-14
2302.96,-1
2302.00,6
2301.03,1
2300.07,-6
2299.10,-4
2298.14,-0
2297.17,-3
2296.21,5
2295.25,14
2294.28,0
2293.32,-20
2292.35,-15
2291.39,8
2290.42,17
2289.46,3
2288.50,-22
2287.53,-40
2286.57,-38
2285.60,-27
2284.64,-18
2283.68,-8
2282.71,-1
2281.75,5
2280.78,13
2279.82,20
2278.85,20
2277.89,11
2276.93,-1
2275.96,-4
2275.00,3
2274.03,5
2273.07,0
2272.10,-2
2271.14,4
2270.18,16
2269.21,17
2268.25,8
2267.28,1
2266.32,-0
2265.35,3
2264.39,11
2263.43,20
2262.46,25
2261.50,32
2260.53,46
2259.57,58
2258.61,43
2257.64,0
2256.68,-34
2255.71,-49
2254.75,-43
2253.78,-17
2252.82,5
2251.86,12
2250.89,17
2249.93,20
2248.96,28
2248.00,38
2247.03,27
2246.07,9
2245.11,3
2244.14,-4
2243.18,-7
2242.21,-2
2241.25,-4
2240.28,-13
2239.32,-15
2238.36,-2
2237.39,13
2236.43,15
2235.46,-3
2234.50,-28
2233.54,-38
2232.57,-25
2231.61,-1
2230.64,20
2229.68,21
2228.71,-0
2227.75,-24
2226.79,-31
2225.82,-24
2224.86,-17
2223.89,-22
2222.93,-34
2221.96,-34
2221.00,-19
2220.04,-2
2219.07,1
2218.11,-21
2217.14,-49
2216.18,-54
2215.21,-33
2214.25,-3
2213.29,14
2212.32,5
2211.36,-12
2210.39,-20
2209.43,-17
2208.47,-16
2207.50,-25
2206.54,-39
2205.57,-42
2204.61,-20
2203.64,8
2202.68,21
2201.72,20
2200.75,8
2199.79,1
2198.82,10
2197.86,21
2196.89,16
2195.93,-3
2194.97,-27
2194.00,-45
2193.04,-48
2192.07,-37
2191.11,-18
2190.14,-1
2189.18,15
2188.22,33
2187.25,44
2186.29,45
2185.32,41
2184.36,30
2183.40,12
2182.43,-8
2181.47,-25
2180.50,-37
2179.54,-36
2178.57,-27
2177.61,-17
2176.65,-6
2175.68,-0
2174.72,-6
2173.75,-20
2172.79,-31
2171.82,-34
2170.86,-27
2169.90,-15
2168.93,-3
2167.97,-4
2167.00,-17
2166.04,-29
2165.07,-31
2164.11,-27
2163.15,-20
2162.18,-14
2161.22,-13
2160.25,-19
2159.29,-29
2158.32,-30
2157.36,-13
2156.40,2
2155.43,-2
2154.47,-18
2153.50,-26
2152.54,-22
2151.58,-12
2150.61,-5
2149.65,-5
2148.68,-9
2147.72,-8
2146.75,-0
2145.79,7
2144.83,5
2143.86,-5
2142.90,-12
2141.93,-19
2140.97,-29
2140.00,-37
2139.04,-35
2138.08,-24
2137.11,-11
2136.15,-1
2135.18,-3
2134.22,-10
2133.25,-6
2132.29,9
2131.33,21
2130.36,24
2129.40,16
2128.43,2
2127.47,-7
2126.51,-6
2125.54,-0
2124.58,5
2123.61,6
2122.65,0
2121.68,-3
2120.72,-1
2119.76,3
2118.79,13
2117.83,14
2116.86,3
2115.90,-4
2114.93,1
2113.97,3
2113.01,-1
2112.04,1
2111.08,19
2110.11,35
2109.15,37
2108.18,30
2107.22,15
2106.26,-2
2105.29,-4
2104.33,9
2103.36,21
2102.40,27
2101.44,28
2100.47,22
2099.51,11
2098.54,1
2097.58,-12
2096.61,-28
2095.65,-41
2094.69,-50
2093.72,-53
2092.76,-47
2091.79,-30
2090.83,-12
2089.86,-3
2088.90,-3
2087.94,-8
2086.97,-12
2086.01,-10
2085.04,0
2084.08,12
2083.11,17
2082.15,12
2081.19,-3
2080.22,-15
2079.26,-17
2078.29,-7
2077.33,13
2076.37,25
2075.40,21
2074.44,11
2073.47,5
2072.51,3
2071.54,1
2070.58,-6
2069.62,-23
2068.65,-38
2067.69,-31
2066.72,-2
2065.76,19
2064.79,20
2063.83,20
2062.87,28
2061.90,30
2060.94,18
2059.97,4
2059.01,0
2058.04,7
2057.08,11
2056.12,5
2055.15,-6
2054.19,-9
2053.22,-2
2052.26,3
2051.30,-2
2050.33,-9
2049.37,-14
2048.40,2
2047.44,32
2046.47,39
2045.51,21
2044.55,12
2043.58,32
2042.62,52
2041.65,47
2040.69,39
2039.72,52
2038.76,63
2037.80,51
2036.83,30
2035.87,11
2034.90,3
2033.94,8
2032.97,15
2032.01,23
2031.05,26
2030.08,22
2029.12,13
2028.15,3
2027.19,-3
2026.23,2
2025.26,9
2024.30,10
2023.33,16
2022.37,28
2021.40,31
2020.44,20
2019.48,6
2018.51,-8
2017.55,-17
2016.58,-21
2015.62,-25
2014.65,-27
2013.69,-23
2012.73,-10
2011.76,10
2010.80,34
2009.83,52
2008.87,53
2007.90,38
2006.94,17
2005.98,1
2005.01,-11
2004.05,-19
2003.08,-20
2002.12,-17
2001.15,-18
2000.19,-21
1999.23,-21
1998.26,-28
1997.30,-39
1996.33,-46
1995.37,-53
1994.41,-57
1993.44,-50
1992.48,-39
1991.51,-30
1990.55,-24
1989.58,-22
1988.62,-19
1987.66,-14
1986.69,-12
1985.73,-17
1984.76,-20
1983.80,-16
1982.83,-3
1981.87,17
1980.91,25
1979.94,8
1978.98,-27
1978.01,-59
1977.05,-68
1976.08,-55
1975.12,-38
1974.16,-31
1973.19,-33
1972.23,-36
1971.26,-31
1970.30,-18
1969.34,-10
1968.37,-10
1967.41,-6
1966.44,-1
1965.48,-11
1964.51,-20
1963.55,-16
1962.59,-6
1961.62,1
1960.66,-2
1959.69,-21
1958.73,-45
1957.76,-56
1956.80,-55
1955.84,-45
1954.87,-19
1953.91,4
1952.94,7
1951.98,1
1951.01,0
1950.05,-0
1949.09,1
1948.12,3
1947.16,-0
1946.19,-11
1945.23,-24
1944.27,-29
1943.30,-21
1942.34,-1
1941.37,23
1940.41,38
1939.44,35
1938.48,19
1937.52,-1
1936.55,-17
1935.59,-17
1934.62,-4
1933.66,6
1932.69,12
1931.73,20
1930.77,25
1929.80,17
1928.84,-2
1927.87,-19
1926.91,-22
1925.94,-18
1924.98,-8
1924.02,8
1923.05,13
1922.09,12
1921.12,14
1920.16,20
1919.20,23
1918.23,23
1917.27,29
1916.30,41
1915.34,47
1914.37,42
1913.41,33
1912.45,16
1911.48,-6
1910.52,-11
1909.55,3
1908.59,12
1907.62,5
1906.66,-7
1905.70,-11
1904.73,-6
1903.77,-5
1902.80,-10
1901.84,-7
1900.87,8
1899.91,13
1898.95,-2
1897.98,-13
1897.02,2
1896.05,27
1895.09,42
1894.13,42
1893.16,29
1892.20,11
1891.23,0
1890.27,-3
1889.30,-5
1888.34,-7
1887.38,-2
1886.41,14
1885.45,34
1884.48,39
1883.52,22
1882.55,-3
1881.59,-14
1880.63,-9
1879.66,-2
1878.70,2
1877.73,1
1876.77,-8
1875.80,-15
1874.84,-5
1873.88,19
1872.91,42
1871.95,54
1870.98,49
1870.02,27
1869.06,0
1868.09,-10
1867.13,6
1866.16,28
1865.20,30
1864.23,17
1863.27,3
1862.31,-3
1861.34,-7
1860.38,-15
1859.41,-24
1858.45,-23
1857.48,-10
1856.52,2
1855.56,9
1854.59,15
1853.63,28
1852.66,36
1851.70,24
1850.73,-9
1849.77,-25
1848.81,-20
1847.84,-7
1846.88,9
1845.91,17
1844.95,14
1843.98,12
1843.02,19
1842.06,31
1841.09,42
1840.13,35
1839.16,-0
1838.20,-41
1837.24,-48
1836.27,-21
1835.31,6
1834.34,12
1833.38,3
1832.41,-13
1831.45,-27
1830.49,-33
1829.52,-29
1828.56,-26
1827.59,-35
1826.63,-40
1825.66,-16
1824.70,17
1823.74,25
1822.77,14
1821.81,7
1820.84,-3
1819.88,-18
1818.91,-26
1817.95,-21
1816.99,-14
1816.02,-15
1815.06,-21
1814.09,-24
1813.13,-20
1812.17,-9
1811.20,3
1810.24,13
1809.27,13
1808.31,5
1807.34,-1
1806.38,-1
1805.42,-6
1804.45,-10
1803.49,-9
1802.52,-12
1801.56,-20
1800.59,-24
1799.63,-18
1798.67,-7
1797.70,0
1796.74,3
1795.77,7
1794.81,4
1793.84,-1
1792.88,-2
1791.92,1
1790.95,4
1789.99,3
1789.02,-8
1788.06,-26
1787.10,-37
1786.13,-36
1785.17,-26
1784.20,-12
1783.24,7
1782.27,22
1781.31,18
1780.35,10
1779.38,4
1778.42,1
1777.45,5
1776.49,18
1775.52,29
1774.56,27
1773.60,10
1772.63,-12
1771.67,-29
1770.70,-32
1769.74,-16
1768.77,8
1767.81,24
1766.85,24
1765.88,14
1764.92,1
1763.95,-7
1762.99,-2
1762.03,9
1761.06,18
1760.10,24
1759.13,18
1758.17,-7
1757.20,-38
1756.24,-56
1755.28,-54
1754.31,-36
1753.35,-13
1752.38,5
1751.42,7
1750.45,-3
1749.49,-10
1748.53,-6
1747.56,3
1746.60,10
1745.63,13
1744.67,11
1743.70,9
1742.74,12
1741.78,18
1740.81,24
1739.85,25
1738.88,20
1737.92,11
1736.96,3
1735.99,0
1735.03,2
1734.06,6
1733.10,12
1732.13,19
1731.17,21
1730.21,25
1729.24,39
1728.28,53
1727.31,55
1726.35,47
1725.38,35
1724.42,15
1723.46,-5
1722.49,-15
1721.53,-13
1720.56,-1
1719.60,17
1718.63,31
1717.67,33
1716.71,29
1715.74,25
1714.78,23
1713.81,23
1712.85,16
1711.89,2
1710.92,-6
1709.96,3
1708.99,15
1708.03,11
1707.06,3
1706.10,-4
1705.14,-9
1704.17,-6
1703.21,-2
1702.24,2
1701.28,13
1700.31,24
1699.35,28
1698.39,22
1697.42,11
1696.46,-7
1695.49,-29
1694.53,-45
1693.56,-42
1692.60,-22
1691.64,5
1690.67,23
1689.71,31
1688.74,21
1687.78,2
1686.81,-5
1685.85,-3
1684.89,-2
1683.92,-5
1682.96,-12
1681.99,-18
1681.03,-20
1680.07,-14
1679.10,-3
1678.14,9
1677.17,17
1676.21,20
1675.24,23
1674.28,35
1673.32,46
1672.35,47
1671.39,42
1670.42,32
1669.46,12
1668.49,-7
1667.53,-8
1666.57,10
1665.60,31
1664.64,42
1663.67,36
1662.71,17
1661.74,3
1660.78,9
1659.82,11
1658.85,5
1657.89,11
1656.92,12
1655.96,-1
1655.00,-18
1654.03,-25
1653.07,-19
1652.10,-3
1651.14,14
1650.17,30
1649.21,37
1648.25,33
1647.28,25
1646.32,29
1645.35,37
1644.39,42
1643.42,46
1642.46,42
1641.50,34
1640.53,26
1639.57,23
1638.60,28
1637.64,38
1636.67,43
1635.71,39
1634.75,28
1633.78,22
1632.82,28
1631.85,37
1630.89,36
1629.93,24
1628.96,11
1628.00,-4
1627.03,-17
1626.07,-20
1625.10,-16
1624.14,-8
1623.18,0
1622.21,6
1621.25,6
1620.28,6
1619.32,7
1618.35,5
1617.39,-1
1616.43,-1
1615.46,4
1614.50,8
1613.53,21
1612.57,27
1611.60,20
1610.64,14
1609.68,8
1608.71,-1
1607.75,-1
1606.78,13
1605.82,33
1604.86,45
1603.89,44
1602.93,42
1601.96,45
1601.00,37
1600.03,15
1599.07,-6
1598.11,-13
1597.14,-6
1596.18,7
1595.21,18
1594.25,22
1593.28,17
1592.32,3
1591.36,-14
1590.39,-25
1589.43,-24
1588.46,-16
1587.50,-7
1586.53,4
1585.57,14
1584.61,16
1583.64,8
1582.68,0
1581.71,-7
1580.75,-15
1579.79,-17
1578.82,-6
1577.86,15
1576.89,32
1575.93,36
1574.96,26
1574.00,9
1573.04,-2
1572.07,-2
1571.11,0
1570.14,4
1569.18,12
1568.21,12
1567.25,5
1566.29,0
1565.32,-4
1564.36,-8
1563.39,-5
1562.43,2
1561.46,5
1560.50,3
1559.54,-1
1558.57,2
1557.61,11
1556.64,22
1555.68,30
1554.72,34
1553.75,33
1552.79,31
1551.82,28
1550.86,25
1549.89,25
1548.93,27
1547.97,27
1547.00,22
1546.04,12
1545.07,1
1544.11,-1
1543.14,8
1542.18,20
1541.22,24
1540.25,22
1539.29,17
1538.32,11
1537.36,4
1536.39,4
1535.43,7
1534.47,8
1533.50,18
1532.54,40
1531.57,60
1530.61,71
1529.64,70
1528.68,61
1527.72,55
1526.75,59
1525.79,74
1524.82,88
1523.86,87
1522.90,70
1521.93,58
1520.97,51
1520.00,42
1519.04,42
1518.07,52
1517.11,60
1516.15,58
1515.18,44
1514.22,24
1513.25,12
1512.29,13
1511.32,22
1510.36,27
1509.40,20
1508.43,4
1507.47,0
1506.50,11
1505.54,24
1504.57,24
1503.61,14
1502.65,7
1501.68,14
1500.72,25
1499.75,21
1498.79,-2
1497.83,-19
1496.86,-8
1495.90,28
1494.93,60
1493.97,66
1493.00,48
1492.04,23
1491.08,8
1490.11,5
1489.15,13
1488.18,20
1487.22,16
1486.25,6
1485.29,-1
1484.33,-3
1483.36,-8
1482.40,-13
1481.43,-14
1480.47,-9
1479.50,2
1478.54,15
1477.58,20
1476.61,11
1475.65,-1
1474.68,-9
1473.72,-15
1472.76,-19
1471.79,-19
1470.83,-26
1469.86,-31
1468.90,-26
1467.93,-17
1466.97,-10
1466.01,-5
1465.04,0
1464.08,-1
1463.11,-9
1462.15,-13
1461.18,-14
1460.22,-24
1459.26,-23
1458.29,-1
1457.33,17
1456.36,24
1455.40,26
1454.43,21
1453.47,8
1452.51,-10
1451.54,-18
1450.58,-12
1449.61,4
1448.65,19
1447.69,17
1446.72,-3
1445.76,-22
1444.79,-27
1443.83,-18
1442.86,0
1441.90,21
1440.94,39
1439.97,37
1439.01,11
1438.04,-17
1437.08,-28
1436.11,-23
1435.15,-10
1434.19,6
1433.22,20
1432.26,28
1431.29,27
1430.33,13
1429.36,-6
1428.40,-16
1427.44,-10
1426.47,6
1425.51,24
1424.54,26
1423.58,10
1422.62,-6
1421.65,-8
1420.69,9
1419.72,30
1418.76,39
1417.79,27
1416.83,9
1415.87,1
1414.90,-1
1413.94,-8
1412.97,-9
1412.01,3
1411.04,18
1410.08,21
1409.12,10
1408.15,-7
1407.19,-16
1406.22,-9
1405.26,4
1404.29,7
1403.33,-0
1402.37,-4
1401.40,-6
1400.44,-8
1399.47,-1
1398.51,15
1397.55,30
1396.58,29
1395.62,17
1394.65,8
1393.69,9
1392.72,20
1391.76,27
1390.80,21
1389.83,5
1388.87,-12
1387.90,-21
1386.94,-27
1385.97,-34
1385.01,-45
1384.05,-46
1383.08,-29
1382.12,-18
1381.15,-16
1380.19,-9
1379.22,-2
1378.26,-5
1377.30,-13
1376.33,-17
1375.37,-14
1374.40,-11
1373.44,-9
1372.47,-7
1371.51,0
1370.55,13
1369.58,18
1368.62,7
1367.65,-9
1366.69,-17
1365.73,-21
1364.76,-23
1363.80,-15
1362.83,0
1361.87,7
1360.90,15
1359.94,26
1358.98,29
1358.01,19
1357.05,5
1356.08,-3
1355.12,-5
1354.15,-6
1353.19,-3
1352.23,2
1351.26,-3
1350.30,-11
1349.33,-14
1348.37,-15
1347.40,-15
1346.44,-8
1345.48,4
1344.51,14
1343.55,20
1342.58,23
1341.62,21
1340.66,13
1339.69,8
1338.73,10
1337.76,10
1336.80,-4
1335.83,-27
1334.87,-43
1333.91,-42
1332.94,-32
1331.98,-27
1331.01,-18
1330.05,-8
1329.08,2
1328.12,12
1327.16,22
1326.19,28
1325.23,26
1324.26,18
1323.30,14
1322.33,19
1321.37,22
1320.41,16
1319.44,1
1318.48,-8
1317.51,-11
1316.55,-12
1315.59,-10
1314.62,0
1313.66,15
1312.69,23
1311.73,10
1310.76,-17
1309.80,-36
1308.84,-35
1307.87,-24
1306.91,-17
1305.94,-15
1304.98,-4
1304.01,15
1303.05,26
1302.09,22
1301.12,14
1300.16,4
1299.19,-0
1298.23,5
1297.26,13
1296.30,15
1295.34,9
1294.37,3
1293.41,6
1292.44,15
1291.48,19
1290.52,20
1289.55,23
1288.59,23
1287.62,22
1286.66,32
1285.69,50
1284.73,54
1283.77,30
1282.80,-1
1281.84,-17
1280.87,-13
1279.91,8
1278.94,30
1277.98,44
1277.02,47
1276.05,43
1275.09,35
1274.12,30
1273.16,32
1272.19,38
1271.23,44
1270.27,48
1269.30,46
1268.34,39
1267.37,31
1266.41,25
1265.45,22
1264.48,28
1263.52,42
1262.55,47
1261.59,41
1260.62,33
1259.66,28
1258.70,26
1257.73,27
1256.77,36
1255.80,48
1254.84,52
1253.87,42
1252.91,27
1251.95,9
1250.98,-8
1250.02,-16
1249.05,-15
1248.09,-8
1247.12,1
1246.16,7
1245.20,10
1244.23,12
1243.27,14
1242.30,13
1241.34,9
1240.38,1
1239.41,-8
1238.45,-13
1237.48,-10
1236.52,7
1235.55,25
1234.59,37
1233.63,36
1232.66,26
1231.70,12
1230.73,-3
1229.77,-17
1228.80,-26
1227.84,-30
1226.88,-26
1225.91,-18
1224.95,-6
1223.98,8
1223.02,22
1222.05,28
1221.09,24
1220.13,22
1219.16,34
1218.20,40
1217.23,29
1216.27,12
1215.30,-1
1214.34,-9
1213.38,-16
1212.41,-22
1211.45,-28
1210.48,-34
1209.52,-34
1208.56,-19
1207.59,1
1206.63,18
1205.66,27
1204.70,33
1203.73,43
1202.77,57
1201.81,67
1200.84,69
1199.88,61
1198.91,42
1197.95,26
1196.98,19
1196.02,19
1195.06,20
1194.09,21
1193.13,25
1192.16,25
1191.20,12
1190.23,1
1189.27,-4
1188.31,-9
1187.34,-14
1186.38,-17
1185.41,-15
1184.45,-10
1183.49,-1
1182.52,3
1181.56,5
1180.59,10
1179.63,23
1178.66,39
1177.70,49
1176.74,43
1175.77,29
1174.81,20
1173.84,11
1172.88,0
1171.91,-8
1170.95,-14
1169.99,-18
1169.02,-23
1168.06,-25
1167.09,-23
1166.13,-15
1165.16,-5
1164.20,4
1163.24,8
1162.27,7
1161.31,5
1160.34,5
1159.38,8
1158.42,14
1157.45,21
1156.49,30
1155.52,40
1154.56,42
1153.59,27
1152.63,5
1151.67,-11
1150.70,-23
1149.74,-30
1148.77,-24
1147.81,-13
1146.84,-3
1145.88,4
1144.92,8
1143.95,8
1142.99,7
1142.02,9
1141.06,16
1140.09,21
1139.13,19
1138.17,6
1137.20,-12
1136.24,-24
1135.27,-20
1134.31,-6
1133.35,-6
1132.38,-22
1131.42,-28
1130.45,-16
1129.49,2
1128.52,14
1127.56,12
1126.60,5
1125.63,4
1124.67,8
1123.70,6
1122.74,1
1121.77,-1
1120.81,-3
1119.85,-4
1118.88,-4
1117.92,-2
1116.95,-2
1115.99,-6
1115.02,-9
1114.06,-6
1113.10,-2
1112.13,1
1111.17,-0
1110.20,-3
1109.24,0
1108.28,14
1107.31,33
1106.35,51
1105.38,63
1104.42,65
1103.45,54
1102.49,34
1101.53,19
1100.56,11
1099.60,13
1098.63,30
1097.67,51
1096.70,65
1095.74,65
1094.78,55
1093.81,42
1092.85,40
1091.88,88
1090.92,226
1089.95,423
1088.99,674
1088.03,971
1087.06,1237
1086.10,1345
1085.13,1365
1084.17,1256
1083.21,1040
1082.24,799
1081.28,544
1080.31,312
1079.35,152
1078.38,74
1077.42,36
1076.46,19
1075.49,25
1074.53,28
1073.56,28
1072.60,21
1071.63,8
1070.67,-8
1069.71,-21
1068.74,-25
1067.78,-16
1066.81,0
1065.85,15
1064.88,20
1063.92,16
1062.96,8
1061.99,1
1061.03,-6
1060.06,-9
1059.10,-6
1058.13,-5
1057.17,-5
1056.21,-3
1055.24,3
1054.28,-0
1053.31,-4
1052.35,5
1051.39,9
1050.42,5
1049.46,-4
1048.49,-14
1047.53,-22
1046.56,-25
1045.60,-17
1044.64,-11
1043.67,-17
1042.71,-25
1041.74,-25
1040.78,-12
1039.81,5
1038.85,10
1037.89,7
1036.92,6
1035.96,5
1034.99,0
1034.03,-13
1033.06,-31
1032.10,-47
1031.14,-55
1030.17,-47
1029.21,-30
1028.24,-11
1027.28,2
1026.32,5
1025.35,-2
1024.39,-14
1023.42,-21
1022.46,-10
1021.49,9
1020.53,24
1019.57,31
1018.60,29
1017.64,20
1016.67,12
1015.71,7
1014.74,5
1013.78,4
1012.82,-1
1011.85,-10
1010.89,-19
1009.92,-22
1008.96,-18
1007.99,-11
1007.03,-3
1006.07,2
1005.10,3
1004.14,2
1003.17,5
1002.21,10
1001.25,12
1000.28,6
999.32,3
998.35,4
997.39,3
996.42,1
995.46,1
994.50,6
993.53,9
992.57,1
991.60,-9
990.64,-14
989.67,-11
988.71,-4
987.75,0
986.78,-5
985.82,-16
984.85,-22
983.89,-27
982.92,-34
981.96,-43
981.00,-50
980.03,-55
979.07,-57
978.10,-60
977.14,-66
976.18,-70
975.21,-71
974.25,-68
973.28,-68
972.32,-71
971.35,-69
970.39,-52
969.43,-28
968.46,-10
967.50,-8
966.53,-18
965.57,-28
964.60,-27
963.64,-19
962.68,-8
961.71,9
960.75,24
959.78,27
958.82,18
957.85,3
956.89,-9
955.93,-10
954.96,-8
954.00,-7
953.03,-3
952.07,1
951.11,5
950.14,8
949.18,11
948.21,7
947.25,7
946.28,12
945.32,14
944.36,3
943.39,-22
942.43,-45
941.46,-46
940.50,-35
939.53,-23
938.57,-15
937.61,-6
936.64,7
935.68,16
934.71,5
933.75,-6
932.78,-6
931.82,-2
930.86,4
929.89,9
928.93,11
927.96,0
927.00,-18
926.04,-30
925.07,-32
924.11,-25
923.14,-19
922.18,-19
921.21,-19
920.25,-6
919.29,7
918.32,5
917.36,-9
916.39,-23
915.43,-25
914.46,-16
913.50,-7
912.54,-5
911.57,-4
910.61,2
909.64,11
908.68,18
907.71,21
906.75,21
905.79,12
904.82,0
903.86,-6
902.89,0
901.93,18
900.96,34
900.00,35
899.04,27
898.07,12
897.11,-4
896.14,-15
895.18,-13
894.22,4
893.25,31
892.29,58
891.32,81
890.36,103
889.39,127
888.43,149
887.47,160
886.50,154
885.54,143
884.57,130
883.61,117
882.64,111
881.68,114
880.72,114
879.75,94
878.79,72
877.82,59
876.86,54
875.89,57
874.93,66
873.97,75
873.00,76
872.04,78
871.07,88
870.11,101
869.15,106
868.18,99
867.22,83
866.25,61
865.29,50
864.32,56
863.36,69
862.40,80
861.43,81
860.47,73
859.50,55
858.54,29
857.57,6
856.61,-11
855.65,-22
854.68,-27
853.72,-24
852.75,-12
851.79,-5
850.82,-3
849.86,0
848.90,4
847.93,5
846.97,1
846.00,-2
845.04,-13
844.08,-17
843.11,-10
842.15,4
841.18,18
840.22,27
839.25,36
838.29,46
837.33,46
836.36,23
835.40,-16
834.43,-40
833.47,-7
832.50,45
831.54,48
830.58,41
829.61,38
828.65,34
827.68,23
826.72,16
825.75,15
824.79,14
823.83,17
822.86,22
821.90,27
820.93,28
819.97,21
819.01,11
818.04,2
817.08,-6
816.11,-13
815.15,-14
814.18,-12
813.22,-7
812.26,-3
811.29,-3
810.33,-4
809.36,-1
808.40,4
807.43,6
806.47,6
805.51,6
804.54,4
803.58,-2
802.61,-8
801.65,-12
800.68,-6
799.72,16
798.76,36
797.79,40
796.83,29
795.86,10
794.90,-9
793.94,-17
792.97,-14
792.01,-12
791.04,-10
790.08,-10
789.11,-12
788.15,-19
787.19,-23
786.22,-16
785.26,1
784.29,17
783.33,22
782.36,12
781.40,6
780.44,21
779.47,26
778.51,16
777.54,2
776.58,-4
775.61,1
774.65,9
773.69,7
772.72,-4
771.76,-16
770.79,-20
769.83,-13
768.87,2
767.90,13
766.94,21
765.97,28
765.01,35
764.04,37
763.08,29
762.12,11
761.15,0
760.19,-0
759.22,2
758.26,-0
757.29,-8
756.33,-18
755.37,-30
754.40,-31
753.44,-20
752.47,-10
751.51,-13
750.54,-30
749.58,-42
748.62,-34
747.65,-17
746.69,-4
745.72,1
744.76,0
743.79,-7
742.83,-19
741.87,-29
740.90,-27
739.94,-19
738.97,-14
738.01,-13
737.05,-7
736.08,2
735.12,10
734.15,20
733.19,31
732.22,38
731.26,36
730.30,27
729.33,23
728.37,28
727.40,36
726.44,39
725.47,31
724.51,17
723.55,4
722.58,-9
721.62,-17
720.65,-19
719.69,-13
718.72,-5
717.76,-0
716.80,5
715.83,11
714.87,17
713.90,19
712.94,17
711.98,16
711.01,27
710.05,58
709.08,104
708.12,149
707.15,176
706.19,185
705.23,199
704.26,213
703.30,212
702.33,195
701.37,169
700.40,143
699.44,112
698.48,79
697.51,48
696.55,26
695.58,18
694.62,24
693.65,34
692.69,34
691.73,28
690.76,22
689.80,12
688.83,-6
687.87,-5
686.91,98
685.94,96
684.98,-82
684.01,-261
683.05,-175
682.08,92
681.12,112
680.16,31
679.19,-21
678.23,-10
677.26,28
676.30,39
675.33,38
674.37,32
673.41,18
672.44,5
671.48,1
670.51,9
669.55,17
668.58,13
667.62,6
666.66,0
665.69,-5
664.73,-7
663.76,-0
662.80,5
661.84,8
660.87,10
659.91,13
658.94,15
657.98,14
657.01,8
656.05,-2
655.09,-10
654.12,-13
653.16,-6
652.19,4
651.23,10
650.26,9
649.30,2
648.34,-7
647.37,-12
646.41,-13
645.44,-9
644.48,0
643.51,10
642.55,16
641.59,13
640.62,-0
639.66,-16
638.69,-21
637.73,-14
636.77,-1
635.80,10
634.84,18
633.87,24
632.91,23
631.94,20
630.98,16
630.02,10
629.05,-1
628.09,-10
627.12,-8
626.16,0
625.19,7
624.23,6
623.27,-4
622.30,-17
621.34,-28
620.37,-34
619.41,-35
618.44,-34
617.48,-30
616.52,-27
615.55,-22
614.59,-14
613.62,-6
612.66,-2
611.70,-10
610.73,-22
609.77,-27
608.80,-28
607.84,-24
606.87,-18
605.91,-9
604.95,0
603.98,8
603.02,11
602.05,10
601.09,6
600.12,1
599.16,-2
598.20,-4
597.23,-9
596.27,-17
595.30,-27
594.34,-33
593.37,-31
592.41,-27
591.45,-23
590.48,-20
589.52,-17
588.55,-16
587.59,-20
586.62,-25
585.66,-27
584.70,-23
583.73,-13
582.77,1
581.80,13
580.84,18
579.88,17
578.91,14
577.95,11
576.98,9
576.02,14
575.05,24
574.09,31
573.13,32
572.16,28
571.20,23
570.23,15
569.27,5
568.30,-1
567.34,1
566.38,12
565.41,26
564.45,30
563.48,27
562.52,22
561.55,13
560.59,-3
559.63,-14
558.66,-14
557.70,-13
556.73,-10
555.77,-2
554.81,12
553.84,22
552.88,24
551.91,24
550.95,25
549.98,31
549.02,43
548.06,50
547.09,41
546.13,22
545.16,4
544.20,-2
543.23,3
542.27,12
541.31,21
540.34,24
539.38,18
538.41,4
537.45,-12
536.48,-24
535.52,-28
534.56,-25
533.59,-17
532.63,-5
531.66,8
530.70,16
529.74,19
528.77,19
527.81,18
526.84,16
525.88,10
524.91,3
523.95,-3
522.99,-6
522.02,-4
521.06,6
520.09,10
519.13,8
518.16,3
517.20,-3
516.24,-11
515.27,-22
514.31,-28
513.34,-23
512.38,-12
511.41,-0
510.45,2
509.49,-6
508.52,-12
507.56,-14
506.59,-12
505.63,-5
504.67,4
503.70,5
502.74,5
501.77,5
500.81,7
499.84,8
498.88,6
497.92,-0
496.95,-7
495.99,-14
495.02,-17
494.06,-19
493.09,-15
492.13,-5
491.17,6
490.20,13
489.24,14
488.27,18
487.31,39
486.34,64
485.38,80
484.42,82
483.45,75
482.49,65
481.52,58
480.56,51
479.60,44
478.63,35
477.67,25
476.70,14
475.74,3
474.77,-4
473.81,-7
472.85,-8
471.88,-12
470.92,-13
469.95,-11
468.99,-6
468.02,-3
467.06,0
466.10,3
465.13,4
464.17,6
463.20,9
462.24,12
461.27,12
460.31,5
459.35,-5
458.38,-13
457.42,-14
456.45,-5
455.49,10
454.53,21
453.56,25
452.60,23
451.63,19
450.67,19
449.70,20
448.74,24
447.78,29
446.81,30
445.85,26
444.88,28
443.92,35
442.95,39
441.99,36
441.03,27
440.06,20
439.10,16
438.13,11
437.17,4
436.20,-1
435.24,-4
434.28,-3
433.31,-6
432.35,-12
431.38,-17
430.42,-16
429.45,-7
428.49,7
427.53,15
426.56,14
425.60,5
424.63,-3
423.67,-3
422.71,1
421.74,6
420.78,10
419.81,17
418.85,25
417.88,28
416.92,23
415.96,13
414.99,2
414.03,-5
413.06,-9
412.10,-7
411.13,-1
410.17,6
409.21,7
408.24,0
407.28,-2
406.31,-2
405.35,-1
404.38,2
403.42,8
402.46,16
401.49,20
400.53,20
399.56,16
398.60,9
397.64,-1
396.67,-7
395.71,-6
394.74,3
393.78,17
392.81,30
391.85,36
390.89,31
389.92,19
388.96,5
387.99,-2
387.03,8
386.06,26
385.10,41
384.14,47
383.17,42
382.21,31
381.24,21
380.28,12
379.31,5
378.35,3
377.39,4
376.42,4
375.46,8
374.49,14
373.53,18
372.57,15
371.60,5
370.64,-8
369.67,-14
368.71,-11
367.74,-2
366.78,0
365.82,-1
364.85,-1
363.89,3
362.92,8
361.96,12
360.99,12
360.03,9
359.07,5
358.10,7
357.14,17
356.17,32
355.21,48
354.24,62
353.28,68
352.32,60
351.35,37
350.39,15
349.42,0
348.46,-6
347.50,-3
346.53,7
345.57,17
344.60,24
343.64,25
342.67,21
341.71,16
340.75,15
339.78,15
338.82,14
337.85,8
336.89,3
335.92,4
334.96,7
334.00,8
333.03,6
332.07,3
331.10,-3
330.14,-8
329.17,-9
328.21,-2
327.25,12
326.28,23
325.32,25
324.35,23
323.39,17
322.43,13
321.46,13
320.50,16
319.53,17
318.57,11
317.60,-2
316.64,-15
315.68,-17
314.71,-12
313.75,-6
312.78,-1
311.82,1
310.85,4
309.89,4
308.93,-1
307.96,-10
307.00,-25
306.03,-39
305.07,-45
304.10,-42
303.14,-31
302.18,-20
301.21,-18
300.25,-15
299.28,-14
298.32,-16
297.36,-22
296.39,-19
295.43,-13
294.46,-6
293.50,-2
292.53,0
291.57,-2
290.61,-4
289.64,-4
288.68,-2
287.71,2
286.75,6
285.78,12
284.82,19
283.86,23
282.89,24
281.93,17
280.96,10
280.00,11
279.03,19
278.07,25
277.11,16
276.14,3
275.18,-1
274.21,3
273.25,12
272.28,15
271.32,14
270.36,14
269.39,18
268.43,25
267.46,26
266.50,18
265.54,10
264.57,4
263.61,3
262.64,3
261.68,3
260.71,7
259.75,13
258.79,20
257.82,23
256.86,15
255.89,3
254.93,-7
253.96,-10
253.00,-7
252.04,-1
251.07,3
250.11,5
249.14,4
248.18,0
247.21,-3
246.25,-6
245.29,-11
244.32,-16
243.36,-21
242.39,-24
241.43,-24
240.47,-22
239.50,-19
238.54,-20
237.57,-25
236.61,-28
235.64,-30
234.68,-29
233.72,-28
232.75,-31
231.79,-12
230.82,30
229.86,83
228.89,122
227.93,139
226.97,148
226.00,149
225.04,142
224.07,124
223.11,93
222.14,59
221.18,37
220.22,32
219.25,39
218.29,51
217.32,71
216.36,89
215.40,98
214.43,97
213.47,102
212.50,118
211.54,147
210.57,192
209.61,251
208.65,294
207.68,313
206.72,307
205.75,281
204.79,243
203.82,208
202.86,179
201.90,151
200.93,123
199.97,105
199.00,92
198.04,79
197.07,70
196.11,65
195.15,64
194.18,65
193.22,65
192.25,67
191.29,70
190.33,71
189.36,69
188.40,63
187.43,56
186.47,47
185.50,46
184.54,53
183.58,61
182.61,65
181.65,63
180.68,57
179.72,48
178.75,40
177.79,33
176.83,27
175.86,19
174.90,13
173.93,7
172.97,2
172.00,9
171.04,17
170.08,20
169.11,19
168.15,16
167.18,16
166.22,26
165.26,44
164.29,71
163.33,103
162.36,139
161.40,178
160.43,222
159.47,274
158.51,335
157.54,405
156.58,463
155.61,515
154.65,554
153.68,567
152.72,555
151.76,529
150.79,489
149.83,440
148.86,389
147.90,341
146.93,293
145.97,251
145.01,215
144.04,181
143.08,156
142.11,136
141.15,118
140.19,97
139.22,77
138.26,67
137.29,61
136.33,56
135.36,48
134.40,34
133.44,17
132.47,5
131.51,-1
130.54,-3
129.58,-2
128.61,2
127.65,6
126.69,9
125.72,5
124.76,-2
123.79,-7
122.83,-10
121.86,-10
120.90,-3
119.94,3
118.97,7
118.01,9
117.04,9
116.08,3
115.11,-3
114.15,-7
113.19,-8
112.22,-7
111.26,-6
110.29,-1
109.33,8
108.37,19
107.40,29
106.44,31
105.47,28
104.51,18
103.54,4
102.58,-11
101.62,-17
100.65,-17
99.69,-14
98.72,-8
97.76,0
96.79,1
95.83,0
94.87,-1
93.90,0
92.94,2
91.97,5
91.01,8
90.04,10
89.08,12
88.12,13
87.15,11
86.19,7
85.22,-7
84.26,-10
83.30,-13
82.33,-15
81.37,-17
80.40,-19
79.44,-22
78.47,-24
77.51,-24
76.55,-21
