Created As Omnic File,BIOL 012
Raman Shift / cm-1,INT
3418.58,-16
3417.61,6
3416.65,21
3415.68,28
3414.72,28
3413.76,23
3412.79,16
3411.83,-2
3410.86,-38
3409.90,-47
3408.94,-29
3407.97,-8
3407.01,-8
3406.04,-8
3405.08,5
3404.11,19
3403.15,33
3402.19,47
3401.22,39
3400.26,8
3399.29,-8
3398.33,-20
3397.36,-28
3396.40,-26
3395.44,-18
3394.47,-0
3393.51,14
3392.54,25
3391.58,44
3390.61,69
3389.65,85
3388.69,68
3387.72,30
3386.76,6
3385.79,5
3384.83,18
3383.87,32
3382.90,34
3381.94,23
3380.97,8
3380.01,-15
3379.04,-29
3378.08,-15
3377.12,1
3376.15,22
3375.19,43
3374.22,53
3373.26,58
3372.29,48
3371.33,28
3370.37,13
3369.40,11
3368.44,20
3367.47,28
3366.51,20
3365.54,-3
3364.58,-12
3363.62,-16
3362.65,-2
3361.69,14
3360.72,-4
3359.76,-28
3358.80,-20
3357.83,4
3356.87,21
3355.90,27
3354.94,12
3353.97,-6
3353.01,-22
3352.05,-41
3351.08,-40
3350.12,-7
3349.15,30
3348.19,35
3347.22,19
3346.26,25
3345.30,42
3344.33,43
3343.37,19
3342.40,-3
3341.44,-1
3340.47,25
3339.51,49
3338.55,45
3337.58,25
3336.62,9
3335.65,-9
3334.69,-26
3333.73,-21
3332.76,-2
3331.80,25
3330.83,41
3329.87,21
3328.90,-27
3327.94,-61
3326.98,-58
3326.01,-34
3325.05,1
3324.08,28
3323.12,12
3322.15,-28
3321.19,-22
3320.23,9
3319.26,30
3318.30,39
3317.33,29
3316.37,2
3315.40,-21
3314.44,-27
3313.48,-21
3312.51,-18
3311.55,-17
3310.58,-20
3309.62,-9
3308.66,14
3307.69,24
3306.73,17
3305.76,3
3304.80,-5
3303.83,-4
3302.87,-7
3301.91,-18
3300.94,-21
3299.98,-12
3299.01,-1
3298.05,10
3297.08,23
3296.12,17
3295.16,1
3294.19,22
3293.23,60
3292.26,79
3291.30,53
3290.33,-6
3289.37,-52
3288.41,-53
3287.44,-39
3286.48,-49
3285.51,-66
3284.55,-50
3283.59,-7
3282.62,33
3281.66,59
3280.69,49
3279.73,34
3278.76,33
3277.80,17
3276.84,-16
3275.87,-37
3274.91,-26
3273.94,-2
3272.98,13
3272.01,7
3271.05,-5
3270.09,15
3269.12,44
3268.16,29
3267.19,-5
3266.23,-15
3265.26,1
3264.30,27
3263.34,42
3262.37,41
3261.41,42
3260.44,58
3259.48,71
3258.51,65
3257.55,64
3256.59,78
3255.62,74
3254.66,60
3253.69,45
3252.73,31
3251.77,32
3250.80,37
3249.84,18
3248.87,0
3247.91,17
3246.94,53
3245.98,63
3245.02,52
3244.05,31
3243.09,19
3242.12,22
3241.16,16
3240.19,2
3239.23,11
3238.27,41
3237.30,60
3236.34,47
3235.37,34
3234.41,40
3233.44,26
3232.48,12
3231.52,10
3230.55,10
3229.59,11
3228.62,9
3227.66,9
3226.70,10
3225.73,-13
3224.77,-16
3223.80,13
3222.84,21
3221.87,4
3220.91,-1
3219.95,17
3218.98,40
3218.02,52
3217.05,45
3216.09,36
3215.12,49
3214.16,72
3213.20,73
3212.23,55
3211.27,45
3210.30,35
3209.34,26
3208.37,26
3207.41,29
3206.45,35
3205.48,53
3204.52,54
3203.55,23
3202.59,16
3201.63,55
3200.66,86
3199.70,91
3198.73,66
3197.77,24
3196.80,8
3195.84,27
3194.88,46
3193.91,46
3192.95,45
3191.98,42
3191.02,27
3190.05,15
3189.09,21
3188.13,36
3187.16,55
3186.20,78
3185.23,95
3184.27,88
3183.30,56
3182.34,29
3181.38,32
3180.41,47
3179.45,52
3178.48,55
3177.52,63
3176.56,84
3175.59,101
3174.63,79
3173.66,35
3172.70,5
3171.73,18
3170.77,77
3169.81,132
3168.84,125
3167.88,78
3166.91,55
3165.95,47
3164.98,24
3164.02,0
3163.06,5
3162.09,31
3161.13,48
3160.16,52
3159.20,39
3158.23,10
3157.27,11
3156.31,33
3155.34,51
3154.38,79
3153.41,81
3152.45,39
3151.49,2
3150.52,-0
3149.56,18
3148.59,30
3147.63,36
3146.66,49
3145.70,72
3144.74,85
3143.77,81
3142.81,75
3141.84,75
3140.88,78
3139.91,69
3138.95,42
3137.99,25
3137.02,38
3136.06,46
3135.09,38
3134.13,28
3133.16,28
3132.20,34
3131.24,25
3130.27,10
3129.31,4
3128.34,6
3127.38,4
3126.42,-9
3125.45,-8
3124.49,28
3123.52,69
3122.56,77
3121.59,50
3120.63,13
3119.67,0
3118.70,12
3117.74,20
3116.77,17
3115.81,11
3114.84,5
3113.88,0
3112.92,-9
3111.95,3
3110.99,51
3110.02,84
3109.06,74
3108.09,46
3107.13,3
3106.17,-40
3105.20,-51
3104.24,-35
3103.27,-14
3102.31,10
3101.34,16
3100.38,20
3099.42,38
3098.45,14
3097.49,-34
3096.52,-37
3095.56,-18
3094.60,-22
3093.63,-50
3092.67,-73
3091.70,-76
3090.74,-67
3089.77,-48
3088.81,-27
3087.85,-25
3086.88,-51
3085.92,-75
3084.95,-66
3083.99,-32
3083.02,-3
3082.06,0
3081.10,-29
3080.13,-54
3079.17,-49
3078.20,-44
3077.24,-42
3076.27,-17
3075.31,24
3074.35,44
3073.38,22
3072.42,4
3071.45,28
3070.49,58
3069.53,71
3068.56,87
3067.60,111
3066.63,124
3065.67,134
3064.70,145
3063.74,146
3062.78,159
3061.81,170
3060.85,149
3059.88,127
3058.92,145
3057.95,185
3056.99,203
3056.03,185
3055.06,147
3054.10,125
3053.13,131
3052.17,143
3051.20,138
3050.24,109
3049.28,77
3048.31,59
3047.35,63
3046.38,95
3045.42,131
3044.46,137
3043.49,116
3042.53,95
3041.56,94
3040.60,125
3039.63,163
3038.67,179
3037.71,181
3036.74,185
3035.78,188
3034.81,177
3033.85,162
3032.88,167
3031.92,204
3030.96,237
3029.99,225
3029.03,213
3028.06,221
3027.10,234
3026.13,252
3025.17,258
3024.21,248
3023.24,236
3022.28,233
3021.31,245
3020.35,238
3019.39,210
3018.42,225
3017.46,278
3016.49,324
3015.53,345
3014.56,337
3013.60,317
3012.64,316
3011.67,353
3010.71,378
3009.74,352
3008.78,330
3007.81,363
3006.85,405
3005.89,434
3004.92,460
3003.96,473
3002.99,473
3002.03,478
3001.06,491
3000.10,511
2999.14,539
2998.17,568
2997.21,588
2996.24,610
2995.28,640
2994.32,677
2993.35,741
2992.39,796
2991.42,829
2990.46,874
2989.49,934
2988.53,991
2987.57,1043
2986.60,1073
2985.64,1078
2984.67,1093
2983.71,1133
2982.74,1190
2981.78,1239
2980.82,1278
2979.85,1319
2978.89,1360
2977.92,1402
2976.96,1444
2975.99,1493
2975.03,1544
2974.07,1569
2973.10,1581
2972.14,1610
2971.17,1633
2970.21,1645
2969.25,1671
2968.28,1701
2967.32,1736
2966.35,1771
2965.39,1785
2964.42,1792
2963.46,1796
2962.50,1782
2961.53,1767
2960.57,1736
2959.60,1710
2958.64,1719
2957.67,1717
2956.71,1684
2955.75,1660
2954.78,1650
2953.82,1626
2952.85,1610
2951.89,1627
2950.92,1668
2949.96,1723
2949.00,1777
2948.03,1820
2947.07,1860
2946.10,1903
2945.14,1941
2944.17,1970
2943.21,2010
2942.25,2085
2941.28,2178
2940.32,2258
2939.35,2325
2938.39,2376
2937.43,2412
2936.46,2435
2935.50,2438
2934.53,2433
2933.57,2429
2932.60,2405
2931.64,2346
2930.68,2268
2929.71,2191
2928.75,2122
2927.78,2069
2926.82,2014
2925.85,1928
2924.89,1838
2923.93,1763
2922.96,1692
2922.00,1635
2921.03,1580
2920.07,1522
2919.10,1486
2918.14,1481
2917.18,1475
2916.21,1442
2915.25,1390
2914.28,1336
2913.32,1283
2912.36,1256
2911.39,1261
2910.43,1268
2909.46,1271
2908.50,1283
2907.53,1307
2906.57,1318
2905.61,1307
2904.64,1287
2903.68,1290
2902.71,1338
2901.75,1386
2900.78,1403
2899.82,1400
2898.86,1406
2897.89,1444
2896.93,1490
2895.96,1495
2895.00,1473
2894.03,1483
2893.07,1518
2892.11,1538
2891.14,1576
2890.18,1633
2889.21,1667
2888.25,1669
2887.29,1679
2886.32,1725
2885.36,1796
2884.39,1842
2883.43,1834
2882.46,1811
2881.50,1810
2880.54,1818
2879.57,1861
2878.61,1930
2877.64,1927
2876.68,1853
2875.71,1799
2874.75,1783
2873.79,1774
2872.82,1735
2871.86,1670
2870.89,1602
2869.93,1528
2868.96,1460
2868.00,1421
2867.04,1399
2866.07,1366
2865.11,1295
2864.14,1230
2863.18,1211
2862.22,1178
2861.25,1099
2860.29,1017
2859.32,974
2858.36,959
2857.39,947
2856.43,910
2855.47,856
2854.50,820
2853.54,785
2852.57,726
2851.61,643
2850.64,569
2849.68,534
2848.72,507
2847.75,449
2846.79,386
2845.82,347
2844.86,326
2843.89,312
2842.93,296
2841.97,281
2841.00,259
2840.04,228
2839.07,205
2838.11,186
2837.15,151
2836.18,110
2835.22,76
2834.25,42
2833.29,11
2832.32,9
2831.36,32
2830.40,59
2829.43,65
2828.47,48
2827.50,30
2826.54,24
2825.57,10
2824.61,-21
2823.65,-44
2822.68,-31
2821.72,26
2820.75,96
2819.79,128
2818.82,102
2817.86,50
2816.90,1
2815.93,-20
2814.97,-3
2814.00,29
2813.04,31
2812.08,0
2811.11,-15
2810.15,-13
2809.18,-8
2808.22,1
2807.25,-2
2806.29,-27
2805.33,-43
2804.36,-48
2803.40,-49
2802.43,-41
2801.47,-24
2800.50,-17
2799.54,-27
2798.58,-34
2797.61,-34
2796.65,-39
2795.68,-40
2794.72,-37
2793.75,-39
2792.79,-48
2791.83,-67
2790.86,-81
2789.90,-73
2788.93,-58
2787.97,-46
2787.00,-21
2786.04,14
2785.08,42
2784.11,51
2783.15,30
2782.18,-18
2781.22,-60
2780.26,-73
2779.29,-72
2778.33,-74
2777.36,-64
2776.40,-38
2775.43,-39
2774.47,-74
2773.51,-75
2772.54,-43
2771.58,-26
2770.61,-24
2769.65,-51
2768.68,-87
2767.72,-96
2766.76,-97
2765.79,-103
2764.83,-107
2763.86,-95
2762.90,-62
2761.93,-35
2760.97,-41
2760.01,-49
2759.04,-49
2758.08,-47
2757.11,-41
2756.15,-55
2755.19,-88
2754.22,-102
2753.26,-78
2752.29,-36
2751.33,-4
2750.36,22
2749.40,44
2748.44,43
2747.47,22
2746.51,-16
2745.54,-48
2744.58,-59
2743.61,-56
2742.65,-36
2741.69,-9
2740.72,0
2739.76,-10
2738.79,-29
2737.83,-37
2736.86,-35
2735.90,-34
2734.94,-25
2733.97,-10
2733.01,-2
2732.04,3
2731.08,1
2730.12,4
2729.15,20
2728.19,43
2727.22,67
2726.26,86
2725.29,89
2724.33,80
2723.37,70
2722.40,56
2721.44,32
2720.47,11
2719.51,7
2718.54,32
2717.58,80
2716.62,134
2715.65,159
2714.69,141
2713.72,99
2712.76,64
2711.79,54
2710.83,51
2709.87,56
2708.90,71
2707.94,64
2706.97,41
2706.01,20
2705.05,-14
2704.08,-30
2703.12,0
2702.15,45
2701.19,58
2700.22,34
2699.26,-0
2698.30,-22
2697.33,-9
2696.37,37
2695.40,59
2694.44,33
2693.47,10
2692.51,13
2691.55,41
2690.58,85
2689.62,126
2688.65,142
2687.69,136
2686.72,135
2685.76,162
2684.80,202
2683.83,231
2682.87,242
2681.90,229
2680.94,206
2679.98,208
2679.01,245
2678.05,294
2677.08,331
2676.12,361
2675.15,389
2674.19,399
2673.23,379
2672.26,352
2671.30,351
2670.33,365
2669.37,365
2668.40,360
2667.44,384
2666.48,429
2665.51,467
2664.55,488
2663.58,492
2662.62,480
2661.65,473
2660.69,478
2659.73,458
2658.76,422
2657.80,449
2656.83,503
2655.87,514
2654.91,488
2653.94,445
2652.98,409
2652.01,383
2651.05,366
2650.08,365
2649.12,369
2648.16,339
2647.19,283
2646.23,251
2645.26,256
2644.30,265
2643.33,277
2642.37,306
2641.41,336
2640.44,336
2639.48,292
2638.51,228
2637.55,189
2636.58,173
2635.62,144
2634.66,110
2633.69,86
2632.73,57
2631.76,19
2630.80,12
2629.83,61
2628.87,137
2627.91,193
2626.94,196
2625.98,155
2625.01,102
2624.05,73
2623.09,78
2622.12,67
2621.16,27
2620.19,10
2619.23,11
2618.26,6
2617.30,-1
2616.34,1
2615.37,6
2614.41,3
2613.44,-5
2612.48,-15
2611.51,-26
2610.55,-27
2609.59,-14
2608.62,1
2607.66,-1
2606.69,-13
2605.73,-19
2604.76,-17
2603.80,-4
2602.84,11
2601.87,16
2600.91,11
2599.94,1
2598.98,-7
2598.02,-10
2597.05,-17
2596.09,-24
2595.12,-15
2594.16,-1
2593.19,6
2592.23,9
2591.27,8
2590.30,-1
2589.34,-9
2588.37,1
2587.41,19
2586.44,14
2585.48,-5
2584.52,-24
2583.55,-60
2582.59,-84
2581.62,-70
2580.66,-34
2579.69,2
2578.73,24
2577.77,14
2576.80,-28
2575.84,-62
2574.87,-48
2573.91,8
2572.95,59
2571.98,60
2571.02,5
2570.05,-62
2569.09,-67
2568.12,-10
2567.16,50
2566.20,64
2565.23,37
2564.27,3
2563.30,-19
2562.34,-10
2561.37,26
2560.41,59
2559.45,61
2558.48,38
2557.52,10
2556.55,-11
2555.59,-7
2554.62,22
2553.66,38
2552.70,27
2551.73,6
2550.77,-14
2549.80,-34
2548.84,-51
2547.88,-54
2546.91,-39
2545.95,-20
2544.98,-15
2544.02,0
2543.05,28
2542.09,40
2541.13,44
2540.16,44
2539.20,25
2538.23,7
2537.27,17
2536.30,34
2535.34,31
2534.38,22
2533.41,10
2532.45,-20
2531.48,-46
2530.52,-51
2529.55,-53
2528.59,-49
2527.63,-28
2526.66,4
2525.70,27
2524.73,27
2523.77,2
2522.81,-33
2521.84,-59
2520.88,-56
2519.91,-29
2518.95,-13
2517.98,-38
2517.02,-67
2516.06,-66
2515.09,-43
2514.13,-4
2513.16,44
2512.20,61
2511.23,25
2510.27,-33
2509.31,-62
2508.34,-38
2507.38,7
2506.41,20
2505.45,1
2504.48,-26
2503.52,-39
2502.56,-27
2501.59,-14
2500.63,-21
2499.66,-40
2498.70,-48
2497.74,-33
2496.77,5
2495.81,40
2494.84,49
2493.88,31
2492.91,0
2491.95,-20
2490.99,-19
2490.02,2
2489.06,34
2488.09,46
2487.13,19
2486.16,-32
2485.20,-66
2484.24,-51
2483.27,-5
2482.31,29
2481.34,40
2480.38,34
2479.41,15
2478.45,2
2477.49,0
2476.52,-3
2475.56,-15
2474.59,-36
2473.63,-45
2472.66,-29
2471.70,-18
2470.74,-32
2469.77,-46
2468.81,-41
2467.84,-21
2466.88,9
2465.92,34
2464.95,34
2463.99,26
2463.02,21
2462.06,15
2461.09,-2
2460.13,-26
2459.17,-41
2458.20,-35
2457.24,-33
2456.27,-59
2455.31,-73
2454.34,-47
2453.38,0
2452.42,40
2451.45,43
2450.49,12
2449.52,-21
2448.56,-38
2447.59,-42
2446.63,-40
2445.67,-32
2444.70,-7
2443.74,55
2442.77,113
2441.81,122
2440.85,121
2439.88,131
2438.92,123
2437.95,100
2436.99,81
2436.02,63
2435.06,47
2434.10,47
2433.13,64
2432.17,95
2431.20,134
2430.24,146
2429.27,133
2428.31,106
2427.35,68
2426.38,44
2425.42,37
2424.45,36
2423.49,44
2422.52,55
2421.56,66
2420.60,99
2419.63,145
2418.67,148
2417.70,104
2416.74,77
2415.78,67
2414.81,32
2413.85,-23
2412.88,-68
2411.92,-71
2410.95,-18
2409.99,50
2409.03,74
2408.06,43
2407.10,-13
2406.13,-65
2405.17,-80
2404.20,-40
2403.24,24
2402.28,46
2401.31,21
2400.35,-0
2399.38,11
2398.42,28
2397.45,29
2396.49,29
2395.53,35
2394.56,30
2393.60,15
2392.63,0
2391.67,-26
2390.71,-46
2389.74,-24
2388.78,20
2387.81,65
2386.85,87
2385.88,76
2384.92,50
2383.96,31
2382.99,16
2382.03,-4
2381.06,-4
2380.10,30
2379.13,75
2378.17,119
2377.21,158
2376.24,161
2375.28,125
2374.31,63
2373.35,-9
2372.38,-47
2371.42,-25
2370.46,26
2369.49,56
2368.53,58
2367.56,58
2366.60,69
2365.64,82
2364.67,75
2363.71,37
2362.74,-5
2361.78,-26
2360.81,-29
2359.85,-13
2358.89,2
2357.92,-15
2356.96,-44
2355.99,-40
2355.03,3
2354.06,62
2353.10,90
2352.14,73
2351.17,44
2350.21,27
2349.24,38
2348.28,66
2347.31,91
2346.35,89
2345.39,55
2344.42,10
2343.46,-12
2342.49,-4
2341.53,7
2340.57,13
2339.60,32
2338.64,62
2337.67,89
2336.71,78
2335.74,36
2334.78,13
2333.82,5
2332.85,-16
2331.89,-31
2330.92,-11
2329.96,37
2328.99,95
2328.03,141
2327.07,154
2326.10,156
2325.14,165
2324.17,170
2323.21,169
2322.24,154
2321.28,126
2320.32,111
2319.35,126
2318.39,161
2317.42,198
2316.46,221
2315.49,227
2314.53,225
2313.57,229
2312.60,242
2311.64,248
2310.67,247
2309.71,254
2308.75,253
2307.78,240
2306.82,219
2305.85,188
2304.89,159
2303.92,148
2302.96,155
2302.00,160
2301.03,143
2300.07,119
2299.10,119
2298.14,119
2297.17,102
2296.21,116
2295.25,137
2294.28,104
2293.32,53
2292.35,52
2291.39,87
2290.42,91
2289.46,50
2288.50,-10
2287.53,-46
2286.57,-37
2285.60,-8
2284.64,14
2283.68,12
2282.71,-8
2281.75,-7
2280.78,12
2279.82,27
2278.85,26
2277.89,4
2276.93,-26
2275.96,-32
2275.00,-12
2274.03,0
2273.07,0
2272.10,0
2271.14,-1
2270.18,2
2269.21,-11
2268.25,-44
2267.28,-59
2266.32,-56
2265.35,-47
2264.39,-31
2263.43,-9
2262.46,9
2261.50,24
2260.53,39
2259.57,55
2258.61,34
2257.64,-42
2256.68,-109
2255.71,-134
2254.75,-107
2253.78,-34
2252.82,22
2251.86,33
2250.89,16
2249.93,-8
2248.96,19
2248.00,101
2247.03,104
2246.07,15
2245.11,-35
2244.14,-34
2243.18,-23
2242.21,-16
2241.25,-21
2240.28,-16
2239.32,0
2238.36,6
2237.39,-0
2236.43,1
2235.46,-1
2234.50,-27
2233.54,-42
2232.57,-17
2231.61,23
2230.64,62
2229.68,73
2228.71,39
2227.75,8
2226.79,3
2225.82,-1
2224.86,-4
2223.89,12
2222.93,35
2221.96,37
2221.00,23
2220.04,15
2219.07,-8
2218.11,-53
2217.14,-70
2216.18,-45
2215.21,-0
2214.25,54
2213.29,78
2212.32,47
2211.36,3
2210.39,-10
2209.43,1
2208.47,9
2207.50,3
2206.54,-11
2205.57,-17
2204.61,6
2203.64,53
2202.68,92
2201.72,116
2200.75,136
2199.79,144
2198.82,132
2197.86,110
2196.89,84
2195.93,48
2194.97,-3
2194.00,-50
2193.04,-58
2192.07,-26
2191.11,24
2190.14,67
2189.18,90
2188.22,97
2187.25,96
2186.29,97
2185.32,104
2184.36,109
2183.40,96
2182.43,63
2181.47,20
2180.50,-10
2179.54,-7
2178.57,20
2177.61,54
2176.65,82
2175.68,88
2174.72,70
2173.75,45
2172.79,30
2171.82,38
2170.86,61
2169.90,84
2168.93,98
2167.97,100
2167.00,90
2166.04,80
2165.07,85
2164.11,99
2163.15,114
2162.18,122
2161.22,117
2160.25,100
2159.29,88
2158.32,99
2157.36,136
2156.40,159
2155.43,131
2154.47,71
2153.50,35
2152.54,37
2151.58,50
2150.61,53
2149.65,44
2148.68,39
2147.72,40
2146.75,42
2145.79,46
2144.83,51
2143.86,44
2142.90,14
2141.93,-32
2140.97,-68
2140.00,-73
2139.04,-65
2138.08,-64
2137.11,-57
2136.15,-43
2135.18,-47
2134.22,-55
2133.25,-40
2132.29,-19
2131.33,-6
2130.36,3
2129.40,0
2128.43,-20
2127.47,-38
2126.51,-42
2125.54,-41
2124.58,-39
2123.61,-33
2122.65,-36
2121.68,-36
2120.72,-24
2119.76,-16
2118.79,-4
2117.83,-8
2116.86,-39
2115.90,-56
2114.93,-44
2113.97,-27
2113.01,-15
2112.04,4
2111.08,20
2110.11,23
2109.15,15
2108.18,-8
2107.22,-24
2106.26,-31
2105.29,-36
2104.33,-21
2103.36,7
2102.40,33
2101.44,45
2100.47,32
2099.51,11
2098.54,5
2097.58,-6
2096.61,-48
2095.65,-98
2094.69,-126
2093.72,-136
2092.76,-110
2091.79,-48
2090.83,-7
2089.86,-7
2088.90,-20
2087.94,-24
2086.97,-31
2086.01,-40
2085.04,-36
2084.08,-18
2083.11,-3
2082.15,3
2081.19,1
2080.22,-11
2079.26,-20
2078.29,-4
2077.33,31
2076.37,50
2075.40,37
2074.44,13
2073.47,-1
2072.51,-3
2071.54,1
2070.58,-3
2069.62,-23
2068.65,-40
2067.69,-34
2066.72,-15
2065.76,9
2064.79,44
2063.83,71
2062.87,71
2061.90,55
2060.94,41
2059.97,34
2059.01,17
2058.04,-8
2057.08,-28
2056.12,-45
2055.15,-59
2054.19,-44
2053.22,-7
2052.26,6
2051.30,-4
2050.33,-10
2049.37,-7
2048.40,14
2047.44,52
2046.47,75
2045.51,72
2044.55,67
2043.58,76
2042.62,92
2041.65,113
2040.69,136
2039.72,147
2038.76,133
2037.80,105
2036.83,73
2035.87,45
2034.90,47
2033.94,70
2032.97,93
2032.01,115
2031.05,129
2030.08,118
2029.12,79
2028.15,34
2027.19,20
2026.23,42
2025.26,70
2024.30,84
2023.33,94
2022.37,101
2021.40,98
2020.44,87
2019.48,60
2018.51,14
2017.55,-18
2016.58,-10
2015.62,16
2014.65,24
2013.69,27
2012.73,56
2011.76,114
2010.80,173
2009.83,194
2008.87,183
2007.90,176
2006.94,163
2005.98,135
2005.01,96
2004.05,47
2003.08,6
2002.12,1
2001.15,25
2000.19,47
1999.23,47
1998.26,25
1997.30,-3
1996.33,-22
1995.37,-28
1994.41,-20
1993.44,-20
1992.48,-32
1991.51,-33
1990.55,-27
1989.58,-17
1988.62,8
1987.66,40
1986.69,56
1985.73,52
1984.76,41
1983.80,40
1982.83,56
1981.87,82
1980.91,103
1979.94,90
1978.98,34
1978.01,-24
1977.05,-47
1976.08,-46
1975.12,-38
1974.16,-17
1973.19,3
1972.23,-2
1971.26,-18
1970.30,5
1969.34,63
1968.37,92
1967.41,72
1966.44,40
1965.48,27
1964.51,32
1963.55,54
1962.59,81
1961.62,94
1960.66,78
1959.69,21
1958.73,-52
1957.76,-90
1956.80,-77
1955.84,-35
1954.87,21
1953.91,64
1952.94,62
1951.98,41
1951.01,19
1950.05,-7
1949.09,-7
1948.12,21
1947.16,44
1946.19,40
1945.23,20
1944.27,4
1943.30,11
1942.34,47
1941.37,97
1940.41,118
1939.44,89
1938.48,40
1937.52,6
1936.55,-14
1935.59,-16
1934.62,4
1933.66,24
1932.69,37
1931.73,55
1930.77,68
1929.80,57
1928.84,25
1927.87,0
1926.91,-4
1925.94,3
1924.98,24
1924.02,57
1923.05,82
1922.09,104
1921.12,101
1920.16,76
1919.20,73
1918.23,109
1917.27,155
1916.30,171
1915.34,146
1914.37,97
1913.41,50
1912.45,18
1911.48,8
1910.52,13
1909.55,9
1908.59,1
1907.62,8
1906.66,8
1905.70,-2
1904.73,-0
1903.77,11
1902.80,23
1901.84,44
1900.87,69
1899.91,67
1898.95,31
1897.98,10
1897.02,40
1896.05,90
1895.09,122
1894.13,126
1893.16,102
1892.20,73
1891.23,55
1890.27,50
1889.30,45
1888.34,39
1887.38,47
1886.41,69
1885.45,99
1884.48,132
1883.52,145
1882.55,111
1881.59,57
1880.63,39
1879.66,54
1878.70,70
1877.73,77
1876.77,64
1875.80,45
1874.84,54
1873.88,92
1872.91,125
1871.95,136
1870.98,127
1870.02,89
1869.06,44
1868.09,40
1867.13,76
1866.16,110
1865.20,121
1864.23,114
1863.27,87
1862.31,52
1861.34,19
1860.38,-14
1859.41,-40
1858.45,-34
1857.48,4
1856.52,41
1855.56,62
1854.59,83
1853.63,114
1852.66,143
1851.70,141
1850.73,94
1849.77,34
1848.81,4
1847.84,25
1846.88,78
1845.91,108
1844.95,98
1843.98,90
1843.02,110
1842.06,143
1841.09,162
1840.13,135
1839.16,69
1838.20,17
1837.24,8
1836.27,29
1835.31,58
1834.34,68
1833.38,57
1832.41,50
1831.45,45
1830.49,22
1829.52,-7
1828.56,-11
1827.59,12
1826.63,37
1825.66,52
1824.70,68
1823.74,95
1822.77,105
1821.81,89
1820.84,52
1819.88,17
1818.91,17
1817.95,33
1816.99,29
1816.02,7
1815.06,-5
1814.09,-0
1813.13,10
1812.17,22
1811.20,47
1810.24,81
1809.27,95
1808.31,85
1807.34,80
1806.38,84
1805.42,72
1804.45,41
1803.49,8
1802.52,1
1801.56,26
1800.59,41
1799.63,25
1798.67,15
1797.70,36
1796.74,69
1795.77,83
1794.81,64
1793.84,43
1792.88,41
1791.92,42
1790.95,34
1789.99,24
1789.02,15
1788.06,-3
1787.10,-34
1786.13,-63
1785.17,-60
1784.20,-10
1783.24,57
1782.27,91
1781.31,77
1780.35,54
1779.38,39
1778.42,32
1777.45,44
1776.49,58
1775.52,47
1774.56,17
1773.60,-13
1772.63,-44
1771.67,-71
1770.70,-77
1769.74,-51
1768.77,-13
1767.81,8
1766.85,7
1765.88,-11
1764.92,-39
1763.95,-55
1762.99,-42
1762.03,-18
1761.06,2
1760.10,14
1759.13,4
1758.17,-44
1757.20,-107
1756.24,-141
1755.28,-133
1754.31,-104
1753.35,-72
1752.38,-41
1751.42,-30
1750.45,-51
1749.49,-77
1748.53,-70
1747.56,-25
1746.60,26
1745.63,39
1744.67,20
1743.70,4
1742.74,3
1741.78,5
1740.81,-5
1739.85,-22
1738.88,-30
1737.92,-37
1736.96,-58
1735.99,-77
1735.03,-72
1734.06,-45
1733.10,-16
1732.13,-0
1731.17,-4
1730.21,-7
1729.24,15
1728.28,55
1727.31,84
1726.35,75
1725.38,20
1724.42,-55
1723.46,-101
1722.49,-109
1721.53,-101
1720.56,-75
1719.60,-33
1718.63,-5
1717.67,0
1716.71,3
1715.74,0
1714.78,-17
1713.81,-35
1712.85,-35
1711.89,-26
1710.92,-34
1709.96,-66
1708.99,-94
1708.03,-83
1707.06,-63
1706.10,-74
1705.14,-90
1704.17,-88
1703.21,-83
1702.24,-76
1701.28,-50
1700.31,-19
1699.35,-3
1698.39,-5
1697.42,-19
1696.46,-47
1695.49,-82
1694.53,-96
1693.56,-78
1692.60,-59
1691.64,-43
1690.67,-15
1689.71,3
1688.74,6
1687.78,12
1686.81,20
1685.85,23
1684.89,16
1683.92,1
1682.96,-16
1681.99,-29
1681.03,-27
1680.07,-1
1679.10,40
1678.14,83
1677.17,117
1676.21,141
1675.24,183
1674.28,257
1673.32,283
1672.35,254
1671.39,231
1670.42,215
1669.46,175
1668.49,129
1667.53,127
1666.57,180
1665.60,245
1664.64,278
1663.67,262
1662.71,200
1661.74,134
1660.78,124
1659.82,173
1658.85,242
1657.89,264
1656.92,236
1655.96,186
1655.00,143
1654.03,125
1653.07,137
1652.10,165
1651.14,192
1650.17,212
1649.21,229
1648.25,235
1647.28,222
1646.32,189
1645.35,155
1644.39,170
1643.42,213
1642.46,188
1641.50,129
1640.53,97
1639.57,104
1638.60,128
1637.64,142
1636.67,139
1635.71,130
1634.75,122
1633.78,116
1632.82,115
1631.85,123
1630.89,120
1629.93,97
1628.96,70
1628.00,38
1627.03,20
1626.07,34
1625.10,67
1624.14,103
1623.18,136
1622.21,153
1621.25,148
1620.28,130
1619.32,109
1618.35,86
1617.39,70
1616.43,77
1615.46,93
1614.50,110
1613.53,138
1612.57,141
1611.60,116
1610.64,95
1609.68,86
1608.71,88
1607.75,106
1606.78,138
1605.82,173
1604.86,205
1603.89,232
1602.93,249
1601.96,245
1601.00,202
1600.03,119
1599.07,36
1598.11,-0
1597.14,4
1596.18,37
1595.21,78
1594.25,97
1593.28,81
1592.32,39
1591.36,0
1590.39,-10
1589.43,4
1588.46,18
1587.50,34
1586.53,74
1585.57,119
1584.61,124
1583.64,102
1582.68,75
1581.71,49
1580.75,23
1579.79,16
1578.82,49
1577.86,109
1576.89,157
1575.93,160
1574.96,117
1574.00,57
1573.04,24
1572.07,27
1571.11,34
1570.14,51
1569.18,77
1568.21,80
1567.25,56
1566.29,23
1565.32,0
1564.36,0
1563.39,26
1562.43,65
1561.46,95
1560.50,103
1559.54,101
1558.57,119
1557.61,168
1556.64,217
1555.68,227
1554.72,202
1553.75,188
1552.79,196
1551.82,213
1550.86,239
1549.89,273
1548.93,293
1547.97,295
1547.00,288
1546.04,273
1545.07,258
1544.11,267
1543.14,306
1542.18,354
1541.22,389
1540.25,416
1539.29,448
1538.32,486
1537.36,535
1536.39,614
1535.43,728
1534.47,854
1533.50,1004
1532.54,1184
1531.57,1360
1530.61,1509
1529.64,1630
1528.68,1744
1527.72,1874
1526.75,2037
1525.79,2236
1524.82,2456
1523.86,2665
1522.90,2836
1521.93,2972
1520.97,3102
1520.00,3218
1519.04,3346
1518.07,3487
1517.11,3609
1516.15,3682
1515.18,3697
1514.22,3669
1513.25,3622
1512.29,3573
1511.32,3509
1510.36,3392
1509.40,3220
1508.43,3044
1507.47,2898
1506.50,2762
1505.54,2605
1504.57,2426
1503.61,2224
1502.65,2027
1501.68,1860
1500.72,1714
1499.75,1553
1498.79,1370
1497.83,1200
1496.86,1096
1495.90,1070
1494.93,1057
1493.97,982
1493.00,827
1492.04,654
1491.08,536
1490.11,486
1489.15,474
1488.18,463
1487.22,428
1486.25,372
1485.29,331
1484.33,308
1483.36,288
1482.40,265
1481.43,249
1480.47,244
1479.50,252
1478.54,266
1477.58,271
1476.61,262
1475.65,246
1474.68,229
1473.72,208
1472.76,179
1471.79,146
1470.83,123
1469.86,132
1468.90,172
1467.93,214
1466.97,241
1466.01,254
1465.04,259
1464.08,261
1463.11,268
1462.15,292
1461.18,311
1460.22,301
1459.26,289
1458.29,313
1457.33,378
1456.36,451
1455.40,499
1454.43,499
1453.47,461
1452.51,418
1451.54,405
1450.58,421
1449.61,443
1448.65,456
1447.69,440
1446.72,378
1445.76,325
1444.79,319
1443.83,328
1442.86,329
1441.90,339
1440.94,352
1439.97,315
1439.01,204
1438.04,81
1437.08,26
1436.11,41
1435.15,71
1434.19,78
1433.22,69
1432.26,62
1431.29,49
1430.33,9
1429.36,-44
1428.40,-66
1427.44,-36
1426.47,26
1425.51,74
1424.54,63
1423.58,15
1422.62,-20
1421.65,-15
1420.69,24
1419.72,72
1418.76,99
1417.79,91
1416.83,65
1415.87,50
1414.90,43
1413.94,17
1412.97,0
1412.01,25
1411.04,61
1410.08,61
1409.12,14
1408.15,-52
1407.19,-93
1406.22,-84
1405.26,-49
1404.29,-37
1403.33,-49
1402.37,-54
1401.40,-57
1400.44,-65
1399.47,-58
1398.51,-25
1397.55,3
1396.58,-6
1395.62,-31
1394.65,-40
1393.69,-31
1392.72,0
1391.76,27
1390.80,18
1389.83,-17
1388.87,-48
1387.90,-58
1386.94,-58
1385.97,-71
1385.01,-95
1384.05,-94
1383.08,-38
1382.12,28
1381.15,80
1380.19,99
1379.22,80
1378.26,47
1377.30,31
1376.33,38
1375.37,54
1374.40,65
1373.44,69
1372.47,69
1371.51,77
1370.55,92
1369.58,83
1368.62,39
1367.65,-9
1366.69,-26
1365.73,-15
1364.76,-10
1363.80,-25
1362.83,-44
1361.87,-40
1360.90,-7
1359.94,39
1358.98,60
1358.01,33
1357.05,-26
1356.08,-79
1355.12,-106
1354.15,-109
1353.19,-97
1352.23,-80
1351.26,-89
1350.30,-106
1349.33,-107
1348.37,-103
1347.40,-94
1346.44,-76
1345.48,-56
1344.51,-44
1343.55,-33
1342.58,-14
1341.62,4
1340.66,21
1339.69,37
1338.73,40
1337.76,26
1336.80,11
1335.83,7
1334.87,12
1333.91,16
1332.94,22
1331.98,33
1331.01,50
1330.05,83
1329.08,121
1328.12,153
1327.16,175
1326.19,180
1325.23,163
1324.26,135
1323.30,116
1322.33,120
1321.37,128
1320.41,125
1319.44,105
1318.48,84
1317.51,68
1316.55,49
1315.59,29
1314.62,34
1313.66,72
1312.69,98
1311.73,67
1310.76,-3
1309.80,-63
1308.84,-84
1307.87,-75
1306.91,-55
1305.94,-26
1304.98,12
1304.01,38
1303.05,28
1302.09,-4
1301.12,-44
1300.16,-61
1299.19,-40
1298.23,-16
1297.26,-19
1296.30,-41
1295.34,-50
1294.37,-33
1293.41,-8
1292.44,-1
1291.48,-21
1290.52,-47
1289.55,-59
1288.59,-45
1287.62,-2
1286.66,60
1285.69,114
1284.73,116
1283.77,53
1282.80,-29
1281.84,-66
1280.87,-37
1279.91,35
1278.94,104
1277.98,156
1277.02,196
1276.05,228
1275.09,242
1274.12,239
1273.16,249
1272.19,278
1271.23,307
1270.27,311
1269.30,284
1268.34,252
1267.37,245
1266.41,251
1265.45,223
1264.48,195
1263.52,215
1262.55,228
1261.59,216
1260.62,197
1259.66,180
1258.70,160
1257.73,139
1256.77,139
1255.80,172
1254.84,182
1253.87,128
1252.91,48
1251.95,-23
1250.98,-66
1250.02,-81
1249.05,-71
1248.09,-44
1247.12,-11
1246.16,13
1245.20,21
1244.23,17
1243.27,16
1242.30,26
1241.34,34
1240.38,24
1239.41,-1
1238.45,-22
1237.48,-11
1236.52,34
1235.55,51
1234.59,26
1233.63,7
1232.66,5
1231.70,-6
1230.73,-43
1229.77,-90
1228.80,-121
1227.84,-126
1226.88,-107
1225.91,-73
1224.95,-33
1223.98,-4
1223.02,10
1222.05,14
1221.09,22
1220.13,45
1219.16,83
1218.20,98
1217.23,71
1216.27,35
1215.30,24
1214.34,42
1213.38,71
1212.41,89
1211.45,94
1210.48,99
1209.52,134
1208.56,202
1207.59,265
1206.63,306
1205.66,343
1204.70,396
1203.73,458
1202.77,505
1201.81,531
1200.84,547
1199.88,532
1198.91,485
1197.95,441
1196.98,430
1196.02,446
1195.06,466
1194.09,461
1193.13,425
1192.16,379
1191.20,359
1190.23,361
1189.27,355
1188.31,330
1187.34,302
1186.38,289
1185.41,286
1184.45,282
1183.49,279
1182.52,279
1181.56,284
1180.59,303
1179.63,344
1178.66,405
1177.70,464
1176.74,500
1175.77,513
1174.81,522
1173.84,532
1172.88,550
1171.91,589
1170.95,660
1169.99,758
1169.02,873
1168.06,1010
1167.09,1176
1166.13,1390
1165.16,1641
1164.20,1893
1163.24,2128
1162.27,2353
1161.31,2579
1160.34,2812
1159.38,3027
1158.42,3185
1157.45,3297
1156.49,3363
1155.52,3390
1154.56,3352
1153.59,3229
1152.63,3045
1151.67,2844
1150.70,2615
1149.74,2374
1148.77,2144
1147.81,1944
1146.84,1764
1145.88,1600
1144.92,1450
1143.95,1307
1142.99,1169
1142.02,1049
1141.06,954
1140.09,873
1139.13,782
1138.17,679
1137.20,578
1136.24,498
1135.27,444
1134.31,415
1133.35,395
1132.38,367
1131.42,346
1130.45,349
1129.49,367
1128.52,377
1127.56,361
1126.60,325
1125.63,293
1124.67,283
1123.70,290
1122.74,301
1121.77,300
1120.81,284
1119.85,265
1118.88,256
1117.92,259
1116.95,266
1115.99,269
1115.02,277
1114.06,298
1113.10,322
1112.13,333
1111.17,324
1110.20,310
1109.24,311
1108.28,336
1107.31,370
1106.35,396
1105.38,408
1104.42,391
1103.45,339
1102.49,261
1101.53,195
1100.56,155
1099.60,144
1098.63,176
1097.67,217
1096.70,234
1095.74,211
1094.78,153
1093.81,80
1092.85,25
1091.88,27
1090.92,68
1089.95,110
1088.99,123
1088.03,107
1087.06,90
1086.10,100
1085.13,125
1084.17,119
1083.21,101
1082.24,86
1081.28,76
1080.31,61
1079.35,35
1078.38,5
1077.42,-14
1076.46,-2
1075.49,27
1074.53,51
1073.56,61
1072.60,58
1071.63,49
1070.67,30
1069.71,-6
1068.74,-32
1067.78,-1
1066.81,61
1065.85,117
1064.88,141
1063.92,129
1062.96,96
1061.99,57
1061.03,20
1060.06,10
1059.10,26
1058.13,40
1057.17,50
1056.21,62
1055.24,68
1054.28,42
1053.31,21
1052.35,40
1051.39,51
1050.42,42
1049.46,21
1048.49,-3
1047.53,-26
1046.56,-35
1045.60,-18
1044.64,0
1043.67,-8
1042.71,-25
1041.74,-25
1040.78,4
1039.81,49
1038.85,85
1037.89,105
1036.92,108
1035.96,105
1034.99,94
1034.03,67
1033.06,29
1032.10,1
1031.14,3
1030.17,34
1029.21,79
1028.24,126
1027.28,162
1026.32,174
1025.35,164
1024.39,147
1023.42,144
1022.46,163
1021.49,196
1020.53,246
1019.57,297
1018.60,330
1017.64,344
1016.67,362
1015.71,391
1014.74,432
1013.78,483
1012.82,532
1011.85,563
1010.89,572
1009.92,581
1008.96,625
1007.99,725
1007.03,839
1006.07,916
1005.10,960
1004.14,971
1003.17,957
1002.21,931
1001.25,893
1000.28,822
999.32,708
998.35,566
997.39,440
996.42,351
995.46,301
994.50,276
993.53,251
992.57,207
991.60,163
990.64,137
989.67,126
988.71,121
987.75,115
986.78,101
985.82,83
984.85,82
983.89,91
982.92,85
981.96,63
981.00,38
980.03,18
979.07,5
978.10,0
977.14,3
976.18,13
975.21,30
974.25,50
973.28,65
972.32,71
971.35,92
970.39,167
969.43,264
968.46,326
967.50,328
966.53,288
965.57,250
964.60,248
963.64,285
962.68,352
961.71,436
960.75,505
959.78,538
958.82,533
957.85,513
956.89,503
955.93,517
954.96,531
954.00,520
953.03,496
952.07,474
951.11,462
950.14,454
949.18,432
948.21,385
947.25,346
946.28,319
945.32,290
944.36,242
943.39,171
942.43,95
941.46,48
940.50,37
939.53,51
938.57,74
937.61,94
936.64,106
935.68,100
934.71,59
933.75,27
932.78,33
931.82,64
930.86,94
929.89,104
928.93,94
927.96,64
927.00,25
926.04,-0
925.07,2
924.11,25
923.14,49
922.18,61
921.21,70
920.25,82
919.29,86
918.32,75
917.36,54
916.39,33
915.43,20
914.46,22
913.50,50
912.54,68
911.57,66
910.61,48
909.64,27
908.68,17
907.71,24
906.75,29
905.79,10
904.82,-15
903.86,-10
902.89,39
901.93,115
900.96,154
900.00,135
899.04,140
898.07,149
897.11,133
896.14,99
895.18,83
894.22,102
893.25,141
892.29,189
891.32,242
890.36,290
889.39,320
888.43,324
887.47,310
886.50,312
885.54,325
884.57,325
883.61,317
882.64,309
881.68,294
880.72,250
879.75,183
878.79,129
877.82,104
876.86,109
875.89,136
874.93,171
873.97,192
873.00,191
872.04,195
871.07,226
870.11,262
869.15,280
868.18,267
867.22,234
866.25,191
865.29,151
864.32,145
863.36,184
862.40,239
861.43,273
860.47,260
859.50,206
858.54,144
857.57,104
856.61,82
855.65,68
854.68,62
853.72,72
852.75,98
851.79,108
850.82,111
849.86,125
848.90,146
847.93,161
846.97,165
846.00,168
845.04,150
844.08,112
843.11,77
842.15,67
841.18,93
840.22,143
839.25,188
838.29,218
837.33,237
836.36,233
835.40,204
834.43,172
833.47,181
832.50,195
831.54,170
830.58,161
829.61,176
828.65,197
827.68,200
826.72,183
825.75,163
824.79,140
823.83,121
822.86,119
821.90,137
820.93,159
819.97,148
819.01,87
818.04,29
817.08,4
816.11,11
815.15,32
814.18,46
813.22,58
812.26,61
811.29,45
810.33,27
809.36,17
808.40,15
807.43,10
806.47,7
805.51,7
804.54,2
803.58,-4
802.61,0
801.65,23
800.68,61
799.72,89
798.76,99
797.79,88
796.83,53
795.86,4
794.90,-35
793.94,-34
792.97,-8
792.01,10
791.04,10
790.08,-12
789.11,-45
788.15,-67
787.19,-53
786.22,-24
785.26,1
784.29,21
783.33,39
782.36,60
781.40,95
780.44,121
779.47,105
778.51,69
777.54,41
776.58,34
775.61,34
774.65,23
773.69,2
772.72,-36
771.76,-68
770.79,-69
769.83,-29
768.87,30
767.90,72
766.94,91
765.97,92
765.01,88
764.04,96
763.08,118
762.12,122
761.15,81
760.19,46
759.22,34
758.26,31
757.29,18
756.33,-13
755.37,-49
754.40,-67
753.44,-64
752.47,-53
751.51,-53
750.54,-67
749.58,-80
748.62,-70
747.65,-45
746.69,-25
745.72,-19
744.76,-24
743.79,-22
742.83,-30
741.87,-69
740.90,-97
739.94,-91
738.97,-58
738.01,-27
737.05,-9
736.08,-2
735.12,-4
734.15,-6
733.19,-4
732.22,1
731.26,0
730.30,-9
729.33,1
728.37,38
727.40,84
726.44,110
725.47,100
724.51,72
723.55,41
722.58,-0
721.62,-41
720.65,-61
719.69,-44
718.72,-11
717.76,2
716.80,8
715.83,18
714.87,29
713.90,32
712.94,18
711.98,0
711.01,-10
710.05,-19
709.08,-18
708.12,7
707.15,58
706.19,100
705.23,97
704.26,75
703.30,54
702.33,40
701.37,32
700.40,20
699.44,-7
698.48,-30
697.51,-37
696.55,-27
695.58,-9
694.62,5
693.65,18
692.69,26
691.73,21
690.76,4
689.80,-33
688.83,-96
687.87,-81
686.91,263
685.94,525
684.98,474
684.01,292
683.05,359
682.08,539
681.12,290
680.16,9
679.19,-90
678.23,-10
677.26,113
676.30,154
675.33,156
674.37,142
673.41,110
672.44,78
671.48,65
670.51,66
669.55,49
668.58,24
667.62,5
666.66,3
665.69,22
664.73,60
663.76,92
662.80,92
661.84,85
660.87,91
659.91,108
658.94,111
657.98,73
657.01,24
656.05,1
655.09,2
654.12,19
653.16,40
652.19,63
651.23,75
650.26,65
649.30,43
648.34,23
647.37,14
646.41,18
645.44,35
644.48,65
643.51,95
642.55,111
641.59,103
640.62,70
639.66,20
638.69,-22
637.73,-36
636.77,-18
635.80,21
634.84,61
633.87,85
632.91,90
631.94,81
630.98,64
630.02,38
629.05,2
628.09,-23
627.12,-16
626.16,9
625.19,30
624.23,30
623.27,6
622.30,-24
621.34,-40
620.37,-44
619.41,-49
618.44,-62
617.48,-74
616.52,-44
615.55,0
614.59,28
613.62,29
612.66,11
611.70,-3
610.73,-5
609.77,-7
608.80,-9
607.84,-5
606.87,10
605.91,34
604.95,55
603.98,62
603.02,57
602.05,46
601.09,36
600.12,28
599.16,18
598.20,8
597.23,0
596.27,-9
595.30,-23
594.34,-46
593.37,-59
592.41,-35
591.45,12
590.48,51
589.52,53
588.55,7
587.59,-43
586.62,-66
585.66,-70
584.70,-66
583.73,-58
582.77,-35
581.80,-4
580.84,11
579.88,12
578.91,5
577.95,0
576.98,-4
576.02,11
575.05,46
574.09,76
573.13,87
572.16,77
571.20,55
570.23,31
569.27,15
568.30,9
567.34,14
566.38,32
565.41,59
564.45,73
563.48,76
562.52,72
561.55,59
560.59,23
559.63,-26
558.66,-61
557.70,-77
556.73,-69
555.77,-40
554.81,1
553.84,25
552.88,35
551.91,43
550.95,56
549.98,76
549.02,102
548.06,119
547.09,114
546.13,89
545.16,60
544.20,44
543.23,52
542.27,58
541.31,57
540.34,57
539.38,58
538.41,47
537.45,5
536.48,-35
535.52,-50
534.56,-40
533.59,-11
532.63,28
531.66,63
530.70,81
529.74,81
528.77,72
527.81,65
526.84,68
525.88,70
524.91,70
523.95,69
522.99,64
522.02,52
521.06,48
520.09,55
519.13,56
518.16,51
517.20,42
516.24,27
515.27,-3
514.31,-25
513.34,-15
512.38,20
511.41,60
510.45,73
509.49,51
508.52,36
507.56,37
506.59,59
505.63,95
504.67,127
503.70,133
502.74,127
501.77,121
500.81,115
499.84,104
498.88,81
497.92,59
496.95,46
495.99,40
495.02,35
494.06,27
493.09,22
492.13,25
491.17,29
490.20,28
489.24,22
488.27,28
487.31,55
486.34,80
485.38,94
484.42,92
483.45,75
482.49,64
481.52,73
480.56,86
479.60,97
478.63,101
477.67,102
476.70,94
475.74,73
474.77,44
473.81,15
472.85,-1
471.88,9
470.92,32
469.95,46
468.99,46
468.02,43
467.06,53
466.10,69
465.13,76
464.17,83
463.20,96
462.24,115
461.27,130
460.31,132
459.35,128
458.38,126
457.42,131
456.45,143
455.49,166
454.53,182
453.56,181
452.60,165
451.63,145
450.67,137
449.70,121
448.74,109
447.78,115
446.81,138
445.85,160
444.88,152
443.92,139
442.95,129
441.99,122
441.03,116
440.06,106
439.10,93
438.13,76
437.17,57
436.20,41
435.24,36
434.28,34
433.31,20
432.35,5
431.38,-2
430.42,7
429.45,30
428.49,59
427.53,77
426.56,74
425.60,49
424.63,19
423.67,12
422.71,14
421.74,18
420.78,25
419.81,38
418.85,60
417.88,70
416.92,64
415.96,48
414.99,27
414.03,9
413.06,-7
412.10,-12
411.13,-6
410.17,4
409.21,7
408.24,0
407.28,2
406.31,9
405.35,21
404.38,34
403.42,56
402.46,78
401.49,88
400.53,86
399.56,74
398.60,60
397.64,34
396.67,12
395.71,6
394.74,17
393.78,37
392.81,54
391.85,84
390.89,102
389.92,89
388.96,45
387.99,11
387.03,21
386.06,47
385.10,78
384.14,102
383.17,112
382.21,103
381.24,84
380.28,63
379.31,44
378.35,33
377.39,27
376.42,24
375.46,34
374.49,52
373.53,70
372.57,73
371.60,67
370.64,64
369.67,61
368.71,56
367.74,48
366.78,43
365.82,44
364.85,52
363.89,65
362.92,79
361.96,88
360.99,85
360.03,67
359.07,41
358.10,18
357.14,24
356.17,64
355.21,117
354.24,165
353.28,188
352.32,166
351.35,106
350.39,53
349.42,17
348.46,2
347.50,8
346.53,37
345.57,60
344.60,75
343.64,82
342.67,83
341.71,75
340.75,57
339.78,40
338.82,31
337.85,34
336.89,44
335.92,49
334.96,50
334.00,50
333.03,49
332.07,50
331.10,45
330.14,42
329.17,46
328.21,61
327.25,85
326.28,110
325.32,123
324.35,124
323.39,115
322.43,104
321.46,107
320.50,121
319.53,127
318.57,115
317.60,82
316.64,50
315.68,35
314.71,28
313.75,33
312.78,50
311.82,71
310.85,82
309.89,81
308.93,64
307.96,28
307.00,-26
306.03,-83
305.07,-116
304.10,-115
303.14,-79
302.18,-28
301.21,-3
300.25,-2
299.28,-19
298.32,-47
297.36,-74
296.39,-70
295.43,-54
294.46,-38
293.50,-28
292.53,-18
291.57,-15
290.61,-25
289.64,-38
288.68,-47
287.71,-45
286.75,-31
285.78,-14
284.82,0
283.86,9
282.89,12
281.93,14
280.96,15
280.00,13
279.03,5
278.07,-11
277.11,-39
276.14,-64
275.18,-72
274.21,-61
273.25,-38
272.28,-17
271.32,-5
270.36,3
269.39,9
268.43,11
267.46,8
266.50,-2
265.54,-16
264.57,-33
263.61,-49
262.64,-61
261.68,-53
260.71,-29
259.75,-1
258.79,19
257.82,25
256.86,19
255.89,9
254.93,0
253.96,-5
253.00,1
252.04,15
251.07,23
250.11,24
249.14,21
248.18,17
247.21,8
246.25,-9
245.29,-31
244.32,-53
243.36,-67
242.39,-76
241.43,-83
240.47,-86
239.50,-84
238.54,-76
237.57,-70
236.61,-68
235.64,-64
234.68,-53
233.72,-36
232.75,-25
231.79,-13
230.82,-3
229.86,4
228.89,8
227.93,22
226.97,38
226.00,47
225.04,43
224.07,32
223.11,18
222.14,-2
221.18,-24
220.22,-47
219.25,-72
218.29,-74
217.32,-59
216.36,-42
215.40,-40
214.43,-62
213.47,-96
212.50,-117
211.54,-115
210.57,-89
209.61,-47
208.65,-15
207.68,-11
206.72,-35
205.75,-80
204.79,-116
203.82,-113
202.86,-92
201.90,-67
200.93,-49
199.97,-41
199.00,-38
198.04,-31
197.07,-17
196.11,6
195.15,20
194.18,22
193.22,17
192.25,9
191.29,2
190.33,-1
189.36,-2
188.40,-5
187.43,-8
186.47,-6
185.50,9
184.54,24
183.58,31
182.61,25
181.65,5
180.68,-23
179.72,-51
178.75,-70
177.79,-71
176.83,-49
175.86,-18
174.90,5
173.93,19
172.97,28
172.00,38
171.04,42
170.08,36
169.11,24
168.15,12
167.18,-2
166.22,-15
165.26,-13
164.29,7
163.33,43
162.36,77
161.40,104
160.43,128
159.47,150
158.51,167
157.54,176
156.58,183
155.61,187
154.65,187
153.68,186
152.72,193
151.76,196
150.79,196
149.83,198
148.86,208
147.90,225
146.93,245
145.97,271
145.01,298
144.04,322
143.08,338
142.11,361
141.15,392
140.19,433
139.22,482
138.26,533
137.29,580
136.33,621
135.36,648
134.40,641
133.44,616
132.47,600
131.51,604
130.54,634
129.58,693
128.61,758
127.65,813
126.69,847
125.72,854
124.76,850
123.79,852
122.83,864
121.86,892
120.90,943
119.94,994
118.97,1037
118.01,1076
117.04,1111
116.08,1129
115.11,1133
114.15,1138
113.19,1147
112.22,1159
111.26,1173
110.29,1201
109.33,1245
108.37,1299
107.40,1356
106.44,1402
105.47,1438
104.51,1466
103.54,1491
102.58,1517
101.62,1548
100.65,1582
99.69,1618
98.72,1654
97.76,1686
96.79,1720
95.83,1762
94.87,1811
93.90,1862
92.94,1916
91.97,1981
91.01,2052
90.04,2124
89.08,2186
88.12,2221
87.15,2242
86.19,2256
85.22,2273
84.26,2298
83.30,2331
82.33,2369
81.37,2398
80.40,2408
79.44,2397
78.47,2407
77.51,2430
76.55,2465
