Created As Omnic File,PLAS 216
Raman Shift / cm-1,INT
3418.58,-5
3417.61,-3
3416.65,-3
3415.68,-4
3414.72,-3
3413.76,-6
3412.79,-7
3411.83,-10
3410.86,-16
3409.90,-17
3408.94,-11
3407.97,-7
3407.01,-7
3406.04,-10
3405.08,-11
3404.11,-8
3403.15,-2
3402.19,0
3401.22,-1
3400.26,-2
3399.29,-2
3398.33,-4
3397.36,-5
3396.40,-5
3395.44,-4
3394.47,-3
3393.51,-2
3392.54,-3
3391.58,-3
3390.61,-3
3389.65,-1
3388.69,-1
3387.72,-5
3386.76,-6
3385.79,-3
3384.83,-1
3383.87,-2
3382.90,-3
3381.94,-1
3380.97,-2
3380.01,-9
3379.04,-11
3378.08,-8
3377.12,-9
3376.15,-10
3375.19,-8
3374.22,-6
3373.26,-6
3372.29,-6
3371.33,-8
3370.37,-8
3369.40,-11
3368.44,-12
3367.47,-12
3366.51,-10
3365.54,-6
3364.58,-8
3363.62,-11
3362.65,-12
3361.69,-12
3360.72,-13
3359.76,-15
3358.80,-15
3357.83,-15
3356.87,-16
3355.90,-17
3354.94,-19
3353.97,-20
3353.01,-18
3352.05,-18
3351.08,-17
3350.12,-15
3349.15,-13
3348.19,-13
3347.22,-14
3346.26,-14
3345.30,-14
3344.33,-14
3343.37,-16
3342.40,-15
3341.44,-14
3340.47,-18
3339.51,-19
3338.55,-18
3337.58,-18
3336.62,-17
3335.65,-17
3334.69,-17
3333.73,-15
3332.76,-13
3331.80,-12
3330.83,-13
3329.87,-16
3328.90,-20
3327.94,-20
3326.98,-18
3326.01,-16
3325.05,-13
3324.08,-10
3323.12,-12
3322.15,-18
3321.19,-18
3320.23,-14
3319.26,-13
3318.30,-14
3317.33,-14
3316.37,-15
3315.40,-15
3314.44,-15
3313.48,-15
3312.51,-15
3311.55,-13
3310.58,-11
3309.62,-9
3308.66,-7
3307.69,-9
3306.73,-10
3305.76,-10
3304.80,-10
3303.83,-10
3302.87,-9
3301.91,-9
3300.94,-7
3299.98,-4
3299.01,-1
3298.05,-1
3297.08,-3
3296.12,-6
3295.16,-3
3294.19,3
3293.23,5
3292.26,5
3291.30,2
3290.33,-4
3289.37,-11
3288.41,-8
3287.44,-0
3286.48,-4
3285.51,-11
3284.55,-7
3283.59,0
3282.62,0
3281.66,-3
3280.69,-2
3279.73,1
3278.76,2
3277.80,0
3276.84,-3
3275.87,-5
3274.91,-3
3273.94,-2
3272.98,-2
3272.01,-3
3271.05,-2
3270.09,-1
3269.12,0
3268.16,3
3267.19,5
3266.23,2
3265.26,-1
3264.30,-3
3263.34,-2
3262.37,4
3261.41,8
3260.44,6
3259.48,5
3258.51,5
3257.55,4
3256.59,2
3255.62,0
3254.66,1
3253.69,1
3252.73,-0
3251.77,0
3250.80,1
3249.84,-3
3248.87,-7
3247.91,-4
3246.94,1
3245.98,2
3245.02,1
3244.05,2
3243.09,3
3242.12,5
3241.16,4
3240.19,-0
3239.23,-1
3238.27,1
3237.30,2
3236.34,1
3235.37,1
3234.41,6
3233.44,5
3232.48,3
3231.52,4
3230.55,6
3229.59,5
3228.62,2
3227.66,0
3226.70,-2
3225.73,-1
3224.77,1
3223.80,1
3222.84,0
3221.87,2
3220.91,3
3219.95,3
3218.98,4
3218.02,4
3217.05,2
3216.09,-1
3215.12,1
3214.16,5
3213.20,7
3212.23,7
3211.27,6
3210.30,6
3209.34,7
3208.37,8
3207.41,5
3206.45,1
3205.48,2
3204.52,3
3203.55,6
3202.59,7
3201.63,5
3200.66,4
3199.70,4
3198.73,2
3197.77,1
3196.80,-0
3195.84,-1
3194.88,2
3193.91,6
3192.95,7
3191.98,4
3191.02,2
3190.05,1
3189.09,2
3188.13,4
3187.16,6
3186.20,7
3185.23,7
3184.27,5
3183.30,2
3182.34,0
3181.38,3
3180.41,7
3179.45,9
3178.48,9
3177.52,7
3176.56,7
3175.59,10
3174.63,8
3173.66,2
3172.70,-1
3171.73,2
3170.77,6
3169.81,7
3168.84,8
3167.88,7
3166.91,5
3165.95,4
3164.98,5
3164.02,5
3163.06,4
3162.09,4
3161.13,5
3160.16,5
3159.20,3
3158.23,1
3157.27,3
3156.31,8
3155.34,12
3154.38,11
3153.41,3
3152.45,-5
3151.49,-7
3150.52,-4
3149.56,2
3148.59,2
3147.63,-1
3146.66,-1
3145.70,4
3144.74,6
3143.77,6
3142.81,5
3141.84,5
3140.88,6
3139.91,7
3138.95,4
3137.99,2
3137.02,3
3136.06,3
3135.09,1
3134.13,0
3133.16,2
3132.20,2
3131.24,-2
3130.27,-3
3129.31,1
3128.34,2
3127.38,-1
3126.42,-3
3125.45,-0
3124.49,2
3123.52,2
3122.56,2
3121.59,0
3120.63,-3
3119.67,-3
3118.70,-4
3117.74,-5
3116.77,-7
3115.81,-9
3114.84,-7
3113.88,-5
3112.92,-5
3111.95,-5
3110.99,-1
3110.02,-0
3109.06,-6
3108.09,-9
3107.13,-9
3106.17,-10
3105.20,-11
3104.24,-10
3103.27,-6
3102.31,-2
3101.34,-1
3100.38,1
3099.42,5
3098.45,6
3097.49,6
3096.52,9
3095.56,14
3094.60,20
3093.63,23
3092.67,24
3091.70,24
3090.74,27
3089.77,32
3088.81,40
3087.85,49
3086.88,54
3085.92,58
3084.95,61
3083.99,66
3083.02,72
3082.06,78
3081.10,84
3080.13,89
3079.17,91
3078.20,93
3077.24,94
3076.27,99
3075.31,106
3074.35,111
3073.38,111
3072.42,110
3071.45,112
3070.49,115
3069.53,119
3068.56,122
3067.60,126
3066.63,130
3065.67,136
3064.70,140
3063.74,143
3062.78,149
3061.81,155
3060.85,160
3059.88,165
3058.92,172
3057.95,182
3056.99,194
3056.03,205
3055.06,210
3054.10,215
3053.13,221
3052.17,229
3051.20,238
3050.24,244
3049.28,245
3048.31,246
3047.35,247
3046.38,251
3045.42,258
3044.46,262
3043.49,266
3042.53,267
3041.56,267
3040.60,272
3039.63,281
3038.67,287
3037.71,289
3036.74,295
3035.78,302
3034.81,304
3033.85,300
3032.88,305
3031.92,319
3030.96,331
3029.99,336
3029.03,341
3028.06,349
3027.10,360
3026.13,373
3025.17,387
3024.21,401
3023.24,411
3022.28,422
3021.31,435
3020.35,447
3019.39,453
3018.42,463
3017.46,478
3016.49,492
3015.53,504
3014.56,512
3013.60,520
3012.64,529
3011.67,543
3010.71,554
3009.74,558
3008.78,564
3007.81,581
3006.85,599
3005.89,613
3004.92,632
3003.96,654
3002.99,674
3002.03,691
3001.06,709
3000.10,728
2999.14,751
2998.17,781
2997.21,804
2996.24,821
2995.28,840
2994.32,863
2993.35,889
2992.39,915
2991.42,940
2990.46,968
2989.49,1000
2988.53,1032
2987.57,1063
2986.60,1090
2985.64,1117
2984.67,1147
2983.71,1178
2982.74,1213
2981.78,1251
2980.82,1292
2979.85,1330
2978.89,1368
2977.92,1409
2976.96,1453
2975.99,1507
2975.03,1567
2974.07,1626
2973.10,1686
2972.14,1749
2971.17,1814
2970.21,1886
2969.25,1967
2968.28,2055
2967.32,2148
2966.35,2239
2965.39,2327
2964.42,2412
2963.46,2499
2962.50,2590
2961.53,2685
2960.57,2775
2959.60,2865
2958.64,2957
2957.67,3045
2956.71,3127
2955.75,3207
2954.78,3283
2953.82,3352
2952.85,3418
2951.89,3491
2950.92,3574
2949.96,3667
2949.00,3770
2948.03,3884
2947.07,4014
2946.10,4171
2945.14,4356
2944.17,4570
2943.21,4811
2942.25,5068
2941.28,5325
2940.32,5586
2939.35,5846
2938.39,6082
2937.43,6288
2936.46,6469
2935.50,6624
2934.53,6737
2933.57,6816
2932.60,6865
2931.64,6882
2930.68,6879
2929.71,6864
2928.75,6841
2927.78,6812
2926.82,6782
2925.85,6743
2924.89,6703
2923.93,6666
2922.96,6636
2922.00,6614
2921.03,6601
2920.07,6593
2919.10,6591
2918.14,6601
2917.18,6625
2916.21,6652
2915.25,6666
2914.28,6680
2913.32,6723
2912.36,6786
2911.39,6853
2910.43,6923
2909.46,7001
2908.50,7088
2907.53,7175
2906.57,7257
2905.61,7336
2904.64,7413
2903.68,7488
2902.71,7572
2901.75,7656
2900.78,7723
2899.82,7764
2898.86,7801
2897.89,7853
2896.93,7902
2895.96,7919
2895.00,7922
2894.03,7952
2893.07,8002
2892.11,8060
2891.14,8142
2890.18,8264
2889.21,8420
2888.25,8627
2887.29,8925
2886.32,9355
2885.36,9950
2884.39,10727
2883.43,11609
2882.46,12525
2881.50,13325
2880.54,13687
2879.57,13620
2878.61,12892
2877.64,11826
2876.68,10693
2875.71,9688
2874.75,9003
2873.79,8525
2872.82,8205
2871.86,7989
2870.89,7822
2869.93,7706
2868.96,7618
2868.00,7561
2867.04,7514
2866.07,7484
2865.11,7467
2864.14,7472
2863.18,7509
2862.22,7560
2861.25,7614
2860.29,7687
2859.32,7795
2858.36,7931
2857.39,8086
2856.43,8258
2855.47,8452
2854.50,8673
2853.54,8915
2852.57,9158
2851.61,9396
2850.64,9608
2849.68,9792
2848.72,9909
2847.75,9919
2846.79,9819
2845.82,9596
2844.86,9248
2843.89,8759
2842.93,8178
2841.97,7536
2841.00,6864
2840.04,6177
2839.07,5517
2838.11,4899
2837.15,4330
2836.18,3821
2835.22,3366
2834.25,2962
2833.29,2611
2832.32,2314
2831.36,2063
2830.40,1847
2829.43,1660
2828.47,1498
2827.50,1360
2826.54,1244
2825.57,1140
2824.61,1042
2823.65,956
2822.68,882
2821.72,824
2820.75,778
2819.79,731
2818.82,678
2817.86,626
2816.90,583
2815.93,544
2814.97,510
2814.00,482
2813.04,455
2812.08,426
2811.11,397
2810.15,374
2809.18,359
2808.22,347
2807.25,335
2806.29,321
2805.33,304
2804.36,288
2803.40,273
2802.43,259
2801.47,246
2800.50,236
2799.54,229
2798.58,224
2797.61,219
2796.65,211
2795.68,199
2794.72,191
2793.75,188
2792.79,185
2791.83,179
2790.86,173
2789.90,169
2788.93,167
2787.97,166
2787.00,165
2786.04,164
2785.08,161
2784.11,160
2783.15,155
2782.18,144
2781.22,135
2780.26,135
2779.29,137
2778.33,138
2777.36,138
2776.40,138
2775.43,135
2774.47,132
2773.51,133
2772.54,139
2771.58,143
2770.61,143
2769.65,142
2768.68,147
2767.72,155
2766.76,159
2765.79,161
2764.83,168
2763.86,175
2762.90,179
2761.93,183
2760.97,192
2760.01,202
2759.04,207
2758.08,211
2757.11,215
2756.15,216
2755.19,217
2754.22,221
2753.26,228
2752.29,237
2751.33,244
2750.36,251
2749.40,259
2748.44,265
2747.47,268
2746.51,269
2745.54,276
2744.58,287
2743.61,298
2742.65,311
2741.69,327
2740.72,342
2739.76,356
2738.79,369
2737.83,387
2736.86,410
2735.90,436
2734.94,465
2733.97,494
2733.01,522
2732.04,549
2731.08,576
2730.12,605
2729.15,636
2728.19,670
2727.22,703
2726.26,729
2725.29,746
2724.33,761
2723.37,773
2722.40,782
2721.44,788
2720.47,781
2719.51,767
2718.54,759
2717.58,755
2716.62,747
2715.65,732
2714.69,711
2713.72,687
2712.76,662
2711.79,638
2710.83,618
2709.87,602
2708.90,584
2707.94,560
2706.97,537
2706.01,518
2705.05,493
2704.08,467
2703.12,448
2702.15,434
2701.19,418
2700.22,396
2699.26,376
2698.30,361
2697.33,351
2696.37,344
2695.40,336
2694.44,323
2693.47,310
2692.51,301
2691.55,296
2690.58,292
2689.62,289
2688.65,284
2687.69,276
2686.72,265
2685.76,258
2684.80,256
2683.83,254
2682.87,248
2681.90,240
2680.94,235
2679.98,233
2679.01,231
2678.05,231
2677.08,234
2676.12,236
2675.15,232
2674.19,224
2673.23,222
2672.26,224
2671.30,222
2670.33,220
2669.37,218
2668.40,215
2667.44,215
2666.48,218
2665.51,221
2664.55,225
2663.58,229
2662.62,234
2661.65,238
2660.69,241
2659.73,240
2658.76,235
2657.80,237
2656.83,243
2655.87,247
2654.91,250
2653.94,247
2652.98,243
2652.01,240
2651.05,237
2650.08,235
2649.12,232
2648.16,225
2647.19,216
2646.23,209
2645.26,204
2644.30,201
2643.33,200
2642.37,199
2641.41,193
2640.44,187
2639.48,184
2638.51,180
2637.55,173
2636.58,168
2635.62,165
2634.66,160
2633.69,154
2632.73,149
2631.76,149
2630.80,151
2629.83,154
2628.87,159
2627.91,169
2626.94,173
2625.98,164
2625.01,151
2624.05,146
2623.09,148
2622.12,156
2621.16,165
2620.19,165
2619.23,162
2618.26,161
2617.30,160
2616.34,159
2615.37,159
2614.41,160
2613.44,163
2612.48,164
2611.51,162
2610.55,157
2609.59,153
2608.62,154
2607.66,160
2606.69,158
2605.73,152
2604.76,148
2603.80,148
2602.84,149
2601.87,151
2600.91,149
2599.94,143
2598.98,138
2598.02,135
2597.05,131
2596.09,127
2595.12,126
2594.16,130
2593.19,133
2592.23,130
2591.27,127
2590.30,129
2589.34,132
2588.37,133
2587.41,133
2586.44,127
2585.48,118
2584.52,114
2583.55,109
2582.59,100
2581.62,94
2580.66,92
2579.69,91
2578.73,86
2577.77,77
2576.80,67
2575.84,61
2574.87,59
2573.91,60
2572.95,61
2571.98,57
2571.02,51
2570.05,47
2569.09,48
2568.12,50
2567.16,52
2566.20,47
2565.23,42
2564.27,41
2563.30,39
2562.34,32
2561.37,28
2560.41,32
2559.45,35
2558.48,31
2557.52,25
2556.55,23
2555.59,23
2554.62,22
2553.66,17
2552.70,12
2551.73,7
2550.77,6
2549.80,7
2548.84,3
2547.88,-4
2546.91,-6
2545.95,-5
2544.98,-2
2544.02,4
2543.05,6
2542.09,1
2541.13,-3
2540.16,-5
2539.20,-7
2538.23,-6
2537.27,-4
2536.30,-5
2535.34,-9
2534.38,-8
2533.41,-7
2532.45,-9
2531.48,-13
2530.52,-21
2529.55,-25
2528.59,-21
2527.63,-13
2526.66,-11
2525.70,-12
2524.73,-10
2523.77,-8
2522.81,-12
2521.84,-19
2520.88,-20
2519.91,-18
2518.95,-14
2517.98,-12
2517.02,-13
2516.06,-14
2515.09,-14
2514.13,-13
2513.16,-9
2512.20,-4
2511.23,-6
2510.27,-13
2509.31,-18
2508.34,-16
2507.38,-10
2506.41,-4
2505.45,-2
2504.48,-4
2503.52,-6
2502.56,-7
2501.59,-8
2500.63,-7
2499.66,-7
2498.70,-8
2497.74,-8
2496.77,-5
2495.81,-0
2494.84,-1
2493.88,-6
2492.91,-12
2491.95,-17
2490.99,-14
2490.02,-4
2489.06,2
2488.09,0
2487.13,-4
2486.16,-5
2485.20,-6
2484.24,-6
2483.27,-2
2482.31,5
2481.34,7
2480.38,1
2479.41,-4
2478.45,-2
2477.49,1
2476.52,1
2475.56,-2
2474.59,-8
2473.63,-13
2472.66,-10
2471.70,-5
2470.74,-4
2469.77,-4
2468.81,-3
2467.84,-1
2466.88,2
2465.92,4
2464.95,5
2463.99,6
2463.02,6
2462.06,3
2461.09,2
2460.13,8
2459.17,11
2458.20,7
2457.24,2
2456.27,3
2455.31,6
2454.34,12
2453.38,21
2452.42,28
2451.45,31
2450.49,27
2449.52,22
2448.56,23
2447.59,28
2446.63,31
2445.67,32
2444.70,36
2443.74,44
2442.77,54
2441.81,62
2440.85,66
2439.88,67
2438.92,68
2437.95,67
2436.99,67
2436.02,68
2435.06,68
2434.10,66
2433.13,62
2432.17,57
2431.20,52
2430.24,54
2429.27,57
2428.31,55
2427.35,50
2426.38,42
2425.42,33
2424.45,28
2423.49,28
2422.52,30
2421.56,32
2420.60,34
2419.63,32
2418.67,27
2417.70,20
2416.74,16
2415.78,14
2414.81,12
2413.85,9
2412.88,4
2411.92,-1
2410.95,-1
2409.99,4
2409.03,8
2408.06,9
2407.10,8
2406.13,3
2405.17,-0
2404.20,3
2403.24,9
2402.28,9
2401.31,3
2400.35,1
2399.38,7
2398.42,10
2397.45,6
2396.49,4
2395.53,6
2394.56,8
2393.60,5
2392.63,2
2391.67,-4
2390.71,-8
2389.74,-4
2388.78,5
2387.81,10
2386.85,12
2385.88,12
2384.92,10
2383.96,6
2382.99,-1
2382.03,-6
2381.06,-5
2380.10,-0
2379.13,4
2378.17,8
2377.21,9
2376.24,9
2375.28,11
2374.31,10
2373.35,6
2372.38,1
2371.42,-4
2370.46,-7
2369.49,-4
2368.53,0
2367.56,2
2366.60,2
2365.64,5
2364.67,6
2363.71,3
2362.74,-2
2361.78,-5
2360.81,-5
2359.85,-5
2358.89,-7
2357.92,-13
2356.96,-21
2355.99,-23
2355.03,-14
2354.06,-3
2353.10,-0
2352.14,-4
2351.17,-8
2350.21,-12
2349.24,-8
2348.28,-1
2347.31,2
2346.35,-1
2345.39,-8
2344.42,-14
2343.46,-16
2342.49,-13
2341.53,-11
2340.57,-15
2339.60,-16
2338.64,-10
2337.67,-4
2336.71,-5
2335.74,-11
2334.78,-12
2333.82,-12
2332.85,-11
2331.89,-8
2330.92,-5
2329.96,-1
2328.99,3
2328.03,6
2327.07,5
2326.10,2
2325.14,-1
2324.17,-2
2323.21,-5
2322.24,-11
2321.28,-17
2320.32,-16
2319.35,-12
2318.39,-9
2317.42,-7
2316.46,-5
2315.49,-4
2314.53,-3
2313.57,-3
2312.60,-1
2311.64,1
2310.67,0
2309.71,-3
2308.75,-4
2307.78,-3
2306.82,-3
2305.85,-6
2304.89,-6
2303.92,0
2302.96,7
2302.00,5
2301.03,-4
2300.07,-6
2299.10,-2
2298.14,5
2297.17,12
2296.21,14
2295.25,10
2294.28,6
2293.32,5
2292.35,8
2291.39,13
2290.42,14
2289.46,10
2288.50,5
2287.53,4
2286.57,7
2285.60,8
2284.64,8
2283.68,8
2282.71,7
2281.75,8
2280.78,11
2279.82,14
2278.85,15
2277.89,14
2276.93,12
2275.96,13
2275.00,17
2274.03,19
2273.07,15
2272.10,12
2271.14,15
2270.18,21
2269.21,22
2268.25,21
2267.28,19
2266.32,18
2265.35,17
2264.39,15
2263.43,15
2262.46,16
2261.50,18
2260.53,18
2259.57,21
2258.61,23
2257.64,20
2256.68,12
2255.71,6
2254.75,5
2253.78,9
2252.82,13
2251.86,16
2250.89,18
2249.93,22
2248.96,25
2248.00,26
2247.03,24
2246.07,21
2245.11,18
2244.14,12
2243.18,8
2242.21,10
2241.25,11
2240.28,12
2239.32,13
2238.36,17
2237.39,18
2236.43,14
2235.46,4
2234.50,-2
2233.54,1
2232.57,6
2231.61,8
2230.64,11
2229.68,17
2228.71,16
2227.75,10
2226.79,5
2225.82,2
2224.86,1
2223.89,3
2222.93,5
2221.96,5
2221.00,3
2220.04,5
2219.07,10
2218.11,8
2217.14,0
2216.18,-2
2215.21,3
2214.25,10
2213.29,13
2212.32,9
2211.36,4
2210.39,3
2209.43,4
2208.47,6
2207.50,6
2206.54,4
2205.57,3
2204.61,5
2203.64,12
2202.68,20
2201.72,25
2200.75,26
2199.79,26
2198.82,25
2197.86,23
2196.89,20
2195.93,18
2194.97,17
2194.00,20
2193.04,25
2192.07,31
2191.11,37
2190.14,40
2189.18,45
2188.22,51
2187.25,58
2186.29,66
2185.32,73
2184.36,73
2183.40,67
2182.43,63
2181.47,60
2180.50,58
2179.54,59
2178.57,60
2177.61,56
2176.65,52
2175.68,47
2174.72,41
2173.75,36
2172.79,31
2171.82,27
2170.86,25
2169.90,24
2168.93,22
2167.97,20
2167.00,16
2166.04,14
2165.07,14
2164.11,15
2163.15,14
2162.18,12
2161.22,12
2160.25,11
2159.29,12
2158.32,14
2157.36,15
2156.40,14
2155.43,11
2154.47,9
2153.50,5
2152.54,1
2151.58,-1
2150.61,-2
2149.65,-1
2148.68,5
2147.72,11
2146.75,8
2145.79,4
2144.83,5
2143.86,7
2142.90,6
2141.93,2
2140.97,-6
2140.00,-16
2139.04,-18
2138.08,-8
2137.11,0
2136.15,-1
2135.18,-6
2134.22,-9
2133.25,-8
2132.29,-1
2131.33,5
2130.36,4
2129.40,-3
2128.43,-8
2127.47,-6
2126.51,-5
2125.54,-8
2124.58,-9
2123.61,-5
2122.65,-1
2121.68,-2
2120.72,-4
2119.76,-2
2118.79,1
2117.83,3
2116.86,3
2115.90,1
2114.93,1
2113.97,-0
2113.01,-2
2112.04,-3
2111.08,-4
2110.11,-6
2109.15,-6
2108.18,-6
2107.22,-7
2106.26,-7
2105.29,-6
2104.33,-1
2103.36,2
2102.40,1
2101.44,0
2100.47,2
2099.51,4
2098.54,7
2097.58,9
2096.61,4
2095.65,-5
2094.69,-10
2093.72,-13
2092.76,-12
2091.79,-7
2090.83,-5
2089.86,-7
2088.90,-8
2087.94,-5
2086.97,-2
2086.01,-1
2085.04,-0
2084.08,0
2083.11,-1
2082.15,1
2081.19,6
2080.22,6
2079.26,5
2078.29,5
2077.33,7
2076.37,8
2075.40,9
2074.44,8
2073.47,7
2072.51,5
2071.54,3
2070.58,-0
2069.62,-3
2068.65,-4
2067.69,-3
2066.72,-4
2065.76,-3
2064.79,2
2063.83,9
2062.87,15
2061.90,19
2060.94,16
2059.97,11
2059.01,8
2058.04,7
2057.08,7
2056.12,6
2055.15,5
2054.19,4
2053.22,6
2052.26,3
2051.30,-2
2050.33,-6
2049.37,-9
2048.40,-3
2047.44,9
2046.47,13
2045.51,9
2044.55,5
2043.58,5
2042.62,7
2041.65,9
2040.69,11
2039.72,13
2038.76,13
2037.80,6
2036.83,-4
2035.87,-8
2034.90,-6
2033.94,-4
2032.97,-6
2032.01,-6
2031.05,-1
2030.08,2
2029.12,-3
2028.15,-10
2027.19,-11
2026.23,-8
2025.26,-5
2024.30,-4
2023.33,-4
2022.37,-4
2021.40,-5
2020.44,-7
2019.48,-10
2018.51,-14
2017.55,-18
2016.58,-17
2015.62,-14
2014.65,-14
2013.69,-15
2012.73,-13
2011.76,-6
2010.80,2
2009.83,10
2008.87,13
2007.90,11
2006.94,6
2005.98,-3
2005.01,-12
2004.05,-18
2003.08,-19
2002.12,-17
2001.15,-13
2000.19,-9
1999.23,-7
1998.26,-9
1997.30,-17
1996.33,-26
1995.37,-22
1994.41,-12
1993.44,-8
1992.48,-9
1991.51,-9
1990.55,-8
1989.58,-9
1988.62,-11
1987.66,-12
1986.69,-10
1985.73,-8
1984.76,-6
1983.80,-3
1982.83,0
1981.87,4
1980.91,6
1979.94,2
1978.98,-6
1978.01,-13
1977.05,-15
1976.08,-12
1975.12,-9
1974.16,-8
1973.19,-10
1972.23,-12
1971.26,-12
1970.30,-7
1969.34,1
1968.37,5
1967.41,6
1966.44,4
1965.48,-2
1964.51,-7
1963.55,-6
1962.59,-1
1961.62,1
1960.66,-1
1959.69,-7
1958.73,-9
1957.76,-9
1956.80,-11
1955.84,-12
1954.87,-7
1953.91,-1
1952.94,-2
1951.98,-4
1951.01,-6
1950.05,-6
1949.09,-7
1948.12,-7
1947.16,-8
1946.19,-9
1945.23,-9
1944.27,-8
1943.30,-6
1942.34,-3
1941.37,-2
1940.41,-1
1939.44,-0
1938.48,-3
1937.52,-10
1936.55,-15
1935.59,-12
1934.62,-7
1933.66,-7
1932.69,-12
1931.73,-14
1930.77,-12
1929.80,-12
1928.84,-16
1927.87,-19
1926.91,-17
1925.94,-13
1924.98,-14
1924.02,-17
1923.05,-17
1922.09,-15
1921.12,-14
1920.16,-14
1919.20,-15
1918.23,-18
1917.27,-20
1916.30,-19
1915.34,-19
1914.37,-21
1913.41,-23
1912.45,-26
1911.48,-28
1910.52,-26
1909.55,-22
1908.59,-19
1907.62,-20
1906.66,-23
1905.70,-25
1904.73,-25
1903.77,-21
1902.80,-17
1901.84,-15
1900.87,-18
1899.91,-23
1898.95,-23
1897.98,-19
1897.02,-15
1896.05,-12
1895.09,-9
1894.13,-8
1893.16,-12
1892.20,-17
1891.23,-18
1890.27,-13
1889.30,-10
1888.34,-13
1887.38,-15
1886.41,-11
1885.45,-4
1884.48,-1
1883.52,-6
1882.55,-15
1881.59,-20
1880.63,-19
1879.66,-13
1878.70,-7
1877.73,-9
1876.77,-17
1875.80,-18
1874.84,-10
1873.88,-2
1872.91,-2
1871.95,-4
1870.98,-5
1870.02,-7
1869.06,-7
1868.09,-2
1867.13,3
1866.16,5
1865.20,2
1864.23,-4
1863.27,-7
1862.31,-5
1861.34,-4
1860.38,-8
1859.41,-14
1858.45,-12
1857.48,-4
1856.52,-1
1855.56,-7
1854.59,-9
1853.63,0
1852.66,10
1851.70,7
1850.73,-4
1849.77,-10
1848.81,-10
1847.84,-7
1846.88,-2
1845.91,0
1844.95,-4
1843.98,-6
1843.02,-0
1842.06,7
1841.09,9
1840.13,2
1839.16,-9
1838.20,-19
1837.24,-21
1836.27,-16
1835.31,-11
1834.34,-8
1833.38,-8
1832.41,-8
1831.45,-9
1830.49,-10
1829.52,-11
1828.56,-11
1827.59,-10
1826.63,-9
1825.66,-4
1824.70,3
1823.74,5
1822.77,4
1821.81,0
1820.84,-6
1819.88,-10
1818.91,-8
1817.95,-5
1816.99,-5
1816.02,-6
1815.06,-4
1814.09,0
1813.13,2
1812.17,2
1811.20,3
1810.24,4
1809.27,5
1808.31,6
1807.34,9
1806.38,13
1805.42,13
1804.45,10
1803.49,4
1802.52,-0
1801.56,-1
1800.59,1
1799.63,5
1798.67,10
1797.70,13
1796.74,13
1795.77,14
1794.81,12
1793.84,11
1792.88,12
1791.92,14
1790.95,17
1789.99,19
1789.02,19
1788.06,16
1787.10,13
1786.13,10
1785.17,10
1784.20,13
1783.24,18
1782.27,24
1781.31,25
1780.35,22
1779.38,18
1778.42,15
1777.45,14
1776.49,17
1775.52,21
1774.56,23
1773.60,24
1772.63,22
1771.67,17
1770.70,13
1769.74,16
1768.77,23
1767.81,27
1766.85,23
1765.88,19
1764.92,21
1763.95,28
1762.99,28
1762.03,25
1761.06,24
1760.10,24
1759.13,24
1758.17,22
1757.20,16
1756.24,9
1755.28,6
1754.31,13
1753.35,27
1752.38,36
1751.42,36
1750.45,37
1749.49,49
1748.53,67
1747.56,83
1746.60,97
1745.63,114
1744.67,131
1743.70,152
1742.74,179
1741.78,203
1740.81,216
1739.85,224
1738.88,232
1737.92,240
1736.96,242
1735.99,242
1735.03,243
1734.06,245
1733.10,244
1732.13,234
1731.17,220
1730.21,210
1729.24,205
1728.28,195
1727.31,177
1726.35,154
1725.38,131
1724.42,106
1723.46,82
1722.49,64
1721.53,56
1720.56,54
1719.60,51
1718.63,42
1717.67,31
1716.71,21
1715.74,13
1714.78,7
1713.81,4
1712.85,3
1711.89,3
1710.92,0
1709.96,-6
1708.99,-11
1708.03,-11
1707.06,-9
1706.10,-13
1705.14,-17
1704.17,-17
1703.21,-15
1702.24,-17
1701.28,-23
1700.31,-24
1699.35,-17
1698.39,-7
1697.42,-4
1696.46,-9
1695.49,-17
1694.53,-22
1693.56,-23
1692.60,-20
1691.64,-15
1690.67,-10
1689.71,-6
1688.74,-4
1687.78,-2
1686.81,-0
1685.85,2
1684.89,3
1683.92,2
1682.96,1
1681.99,0
1681.03,3
1680.07,11
1679.10,24
1678.14,36
1677.17,43
1676.21,47
1675.24,62
1674.28,85
1673.32,105
1672.35,120
1671.39,135
1670.42,151
1669.46,167
1668.49,187
1667.53,213
1666.57,244
1665.60,275
1664.64,307
1663.67,340
1662.71,372
1661.74,405
1660.78,450
1659.82,512
1658.85,586
1657.89,681
1656.92,790
1655.96,902
1655.00,1022
1654.03,1141
1653.07,1252
1652.10,1344
1651.14,1402
1650.17,1422
1649.21,1404
1648.25,1345
1647.28,1254
1646.32,1140
1645.35,1008
1644.39,898
1643.42,791
1642.46,699
1641.50,616
1640.53,550
1639.57,502
1638.60,462
1637.64,424
1636.67,387
1635.71,355
1634.75,328
1633.78,303
1632.82,278
1631.85,255
1630.89,232
1629.93,208
1628.96,192
1628.00,182
1627.03,168
1626.07,157
1625.10,149
1624.14,144
1623.18,143
1622.21,149
1621.25,157
1620.28,164
1619.32,171
1618.35,182
1617.39,200
1616.43,226
1615.46,259
1614.50,296
1613.53,328
1612.57,353
1611.60,361
1610.64,356
1609.68,343
1608.71,321
1607.75,298
1606.78,281
1605.82,267
1604.86,253
1603.89,236
1602.93,220
1601.96,205
1601.00,187
1600.03,165
1599.07,145
1598.11,134
1597.14,130
1596.18,129
1595.21,128
1594.25,123
1593.28,113
1592.32,98
1591.36,84
1590.39,74
1589.43,67
1588.46,62
1587.50,56
1586.53,49
1585.57,42
1584.61,36
1583.64,30
1582.68,25
1581.71,22
1580.75,18
1579.79,14
1578.82,14
1577.86,17
1576.89,20
1575.93,22
1574.96,23
1574.00,20
1573.04,16
1572.07,16
1571.11,20
1570.14,25
1569.18,28
1568.21,25
1567.25,19
1566.29,13
1565.32,8
1564.36,6
1563.39,8
1562.43,12
1561.46,17
1560.50,16
1559.54,12
1558.57,7
1557.61,5
1556.64,3
1555.68,4
1554.72,6
1553.75,5
1552.79,1
1551.82,-2
1550.86,-1
1549.89,2
1548.93,3
1547.97,3
1547.00,1
1546.04,-3
1545.07,-9
1544.11,-16
1543.14,-18
1542.18,-14
1541.22,-10
1540.25,-12
1539.29,-17
1538.32,-22
1537.36,-22
1536.39,-20
1535.43,-18
1534.47,-16
1533.50,-12
1532.54,-5
1531.57,1
1530.61,4
1529.64,3
1528.68,0
1527.72,-3
1526.75,-3
1525.79,0
1524.82,3
1523.86,0
1522.90,-7
1521.93,-10
1520.97,-11
1520.00,-11
1519.04,-7
1518.07,-2
1517.11,1
1516.15,3
1515.18,3
1514.22,2
1513.25,0
1512.29,0
1511.32,2
1510.36,5
1509.40,6
1508.43,8
1507.47,18
1506.50,25
1505.54,29
1504.57,32
1503.61,31
1502.65,33
1501.68,38
1500.72,46
1499.75,49
1498.79,46
1497.83,44
1496.86,49
1495.90,64
1494.93,82
1493.97,93
1493.00,95
1492.04,95
1491.08,100
1490.11,113
1489.15,129
1488.18,144
1487.22,154
1486.25,163
1485.29,174
1484.33,192
1483.36,216
1482.40,241
1481.43,266
1480.47,294
1479.50,331
1478.54,375
1477.58,423
1476.61,474
1475.65,529
1474.68,587
1473.72,648
1472.76,713
1471.79,781
1470.83,849
1469.86,921
1468.90,999
1467.93,1081
1466.97,1161
1466.01,1236
1465.04,1306
1464.08,1369
1463.11,1426
1462.15,1477
1461.18,1514
1460.22,1535
1459.26,1544
1458.29,1548
1457.33,1554
1456.36,1554
1455.40,1550
1454.43,1541
1453.47,1530
1452.51,1523
1451.54,1528
1450.58,1547
1449.61,1580
1448.65,1624
1447.69,1684
1446.72,1752
1445.76,1837
1444.79,1945
1443.83,2080
1442.86,2240
1441.90,2405
1440.94,2554
1439.97,2672
1439.01,2719
1438.04,2707
1437.08,2629
1436.11,2476
1435.15,2292
1434.19,2110
1433.22,1924
1432.26,1740
1431.29,1559
1430.33,1381
1429.36,1214
1428.40,1060
1427.44,918
1426.47,788
1425.51,700
1424.54,634
1423.58,582
1422.62,550
1421.65,541
1420.69,556
1419.72,584
1418.76,611
1417.79,626
1416.83,625
1415.87,591
1414.90,534
1413.94,453
1412.97,353
1412.01,273
1411.04,203
1410.08,149
1409.12,113
1408.15,88
1407.19,69
1406.22,57
1405.26,53
1404.29,48
1403.33,43
1402.37,41
1401.40,42
1400.44,46
1399.47,52
1398.51,60
1397.55,63
1396.58,61
1395.62,62
1394.65,68
1393.69,75
1392.72,86
1391.76,95
1390.80,97
1389.83,96
1388.87,96
1387.90,99
1386.94,103
1385.97,104
1385.01,104
1384.05,108
1383.08,121
1382.12,138
1381.15,153
1380.19,163
1379.22,168
1378.26,173
1377.30,185
1376.33,202
1375.37,222
1374.40,241
1373.44,256
1372.47,267
1371.51,278
1370.55,290
1369.58,297
1368.62,291
1367.65,279
1366.69,265
1365.73,248
1364.76,231
1363.80,224
1362.83,224
1361.87,220
1360.90,216
1359.94,216
1358.98,212
1358.01,206
1357.05,201
1356.08,199
1355.12,199
1354.15,196
1353.19,197
1352.23,205
1351.26,211
1350.30,209
1349.33,204
1348.37,199
1347.40,192
1346.44,186
1345.48,183
1344.51,179
1343.55,174
1342.58,169
1341.62,166
1340.66,163
1339.69,161
1338.73,160
1337.76,158
1336.80,156
1335.83,157
1334.87,160
1333.91,166
1332.94,173
1331.98,185
1331.01,199
1330.05,213
1329.08,226
1328.12,236
1327.16,244
1326.19,249
1325.23,253
1324.26,257
1323.30,261
1322.33,266
1321.37,273
1320.41,291
1319.44,313
1318.48,337
1317.51,364
1316.55,392
1315.59,421
1314.62,453
1313.66,487
1312.69,516
1311.73,543
1310.76,569
1309.80,596
1308.84,625
1307.87,657
1306.91,691
1305.94,727
1304.98,762
1304.01,793
1303.05,820
1302.09,862
1301.12,916
1300.16,1016
1299.19,1156
1298.23,1337
1297.26,1557
1296.30,1768
1295.34,1918
1294.37,1996
1293.41,1944
1292.44,1717
1291.48,1410
1290.52,1093
1289.55,791
1288.59,593
1287.62,497
1286.66,443
1285.69,400
1284.73,373
1283.77,336
1282.80,310
1281.84,288
1280.87,279
1279.91,274
1278.94,268
1277.98,259
1277.02,250
1276.05,240
1275.09,228
1274.12,211
1273.16,195
1272.19,183
1271.23,172
1270.27,164
1269.30,158
1268.34,150
1267.37,142
1266.41,136
1265.45,131
1264.48,130
1263.52,135
1262.55,138
1261.59,135
1260.62,126
1259.66,116
1258.70,111
1257.73,111
1256.77,115
1255.80,120
1254.84,120
1253.87,108
1252.91,91
1251.95,76
1250.98,67
1250.02,61
1249.05,58
1248.09,58
1247.12,63
1246.16,71
1245.20,75
1244.23,73
1243.27,74
1242.30,81
1241.34,92
1240.38,104
1239.41,117
1238.45,132
1237.48,145
1236.52,162
1235.55,178
1234.59,189
1233.63,193
1232.66,191
1231.70,182
1230.73,165
1229.77,143
1228.80,126
1227.84,118
1226.88,112
1225.91,103
1224.95,95
1223.98,95
1223.02,101
1222.05,107
1221.09,112
1220.13,118
1219.16,126
1218.20,129
1217.23,126
1216.27,121
1215.30,118
1214.34,116
1213.38,112
1212.41,104
1211.45,91
1210.48,84
1209.52,92
1208.56,110
1207.59,128
1206.63,144
1205.66,157
1204.70,171
1203.73,187
1202.77,206
1201.81,226
1200.84,233
1199.88,231
1198.91,217
1197.95,197
1196.98,179
1196.02,167
1195.06,156
1194.09,145
1193.13,132
1192.16,123
1191.20,126
1190.23,138
1189.27,150
1188.31,161
1187.34,176
1186.38,197
1185.41,220
1184.45,233
1183.49,240
1182.52,237
1181.56,224
1180.59,206
1179.63,187
1178.66,170
1177.70,158
1176.74,154
1175.77,153
1174.81,160
1173.84,174
1172.88,191
1171.91,213
1170.95,229
1169.99,235
1169.02,229
1168.06,205
1167.09,169
1166.13,141
1165.16,115
1164.20,95
1163.24,79
1162.27,68
1161.31,61
1160.34,58
1159.38,59
1158.42,58
1157.45,59
1156.49,65
1155.52,73
1154.56,79
1153.59,78
1152.63,75
1151.67,75
1150.70,77
1149.74,79
1148.77,84
1147.81,94
1146.84,108
1145.88,122
1144.92,135
1143.95,147
1142.99,159
1142.02,175
1141.06,195
1140.09,222
1139.13,251
1138.17,292
1137.20,348
1136.24,427
1135.27,540
1134.31,674
1133.35,771
1132.38,841
1131.42,880
1130.45,891
1129.49,875
1128.52,831
1127.56,762
1126.60,681
1125.63,607
1124.67,535
1123.70,471
1122.74,411
1121.77,356
1120.81,304
1119.85,259
1118.88,224
1117.92,198
1116.95,177
1115.99,161
1115.02,147
1114.06,137
1113.10,131
1112.13,131
1111.17,134
1110.20,138
1109.24,143
1108.28,151
1107.31,159
1106.35,164
1105.38,168
1104.42,167
1103.45,162
1102.49,155
1101.53,151
1100.56,145
1099.60,141
1098.63,145
1097.67,154
1096.70,162
1095.74,170
1094.78,174
1093.81,174
1092.85,167
1091.88,169
1090.92,186
1089.95,209
1088.99,224
1088.03,231
1087.06,237
1086.10,247
1085.13,258
1084.17,262
1083.21,262
1082.24,264
1081.28,268
1080.31,272
1079.35,274
1078.38,276
1077.42,280
1076.46,289
1075.49,298
1074.53,302
1073.56,301
1072.60,307
1071.63,324
1070.67,349
1069.71,382
1068.74,429
1067.78,514
1066.81,627
1065.85,750
1064.88,876
1063.92,989
1062.96,1070
1061.99,1114
1061.03,1106
1060.06,1032
1059.10,923
1058.13,797
1057.17,660
1056.21,535
1055.24,443
1054.28,364
1053.31,304
1052.35,269
1051.39,242
1050.42,221
1049.46,202
1048.49,181
1047.53,160
1046.56,141
1045.60,127
1044.64,118
1043.67,111
1042.71,107
1041.74,103
1040.78,102
1039.81,104
1038.85,107
1037.89,110
1036.92,102
1035.96,90
1034.99,81
1034.03,75
1033.06,69
1032.10,66
1031.14,67
1030.17,70
1029.21,71
1028.24,77
1027.28,88
1026.32,100
1025.35,105
1024.39,102
1023.42,99
1022.46,104
1021.49,111
1020.53,116
1019.57,117
1018.60,114
1017.64,110
1016.67,106
1015.71,104
1014.74,103
1013.78,99
1012.82,88
1011.85,73
1010.89,60
1009.92,49
1008.96,43
1007.99,41
1007.03,42
1006.07,48
1005.10,56
1004.14,63
1003.17,71
1002.21,82
1001.25,93
1000.28,102
999.32,96
998.35,81
997.39,61
996.42,39
995.46,21
994.50,9
993.53,5
992.57,-2
991.60,-12
990.64,-20
989.67,-21
988.71,-18
987.75,-14
986.78,-12
985.82,-9
984.85,-5
983.89,0
982.92,4
981.96,7
981.00,10
980.03,12
979.07,15
978.10,17
977.14,17
976.18,16
975.21,15
974.25,14
973.28,18
972.32,27
971.35,39
970.39,46
969.43,52
968.46,61
967.50,69
966.53,68
965.57,55
964.60,41
963.64,43
962.68,57
961.71,74
960.75,89
959.78,98
958.82,103
957.85,108
956.89,118
955.93,133
954.96,148
954.00,155
953.03,158
952.07,164
951.11,177
950.14,194
949.18,197
948.21,190
947.25,185
946.28,184
945.32,184
944.36,182
943.39,179
942.43,172
941.46,162
940.50,160
939.53,170
938.57,189
937.61,206
936.64,216
935.68,222
934.71,233
933.75,250
932.78,266
931.82,279
930.86,291
929.89,301
928.93,308
927.96,310
927.00,310
926.04,307
925.07,303
924.11,298
923.14,294
922.18,290
921.21,287
920.25,287
919.29,286
918.32,280
917.36,270
916.39,258
915.43,245
914.46,234
913.50,229
912.54,225
911.57,223
910.61,227
909.64,235
908.68,241
907.71,244
906.75,246
905.79,243
904.82,238
903.86,237
902.89,242
901.93,252
900.96,260
900.00,260
899.04,264
898.07,269
897.11,276
896.14,288
895.18,310
894.22,340
893.25,377
892.29,410
891.32,437
890.36,461
889.39,487
888.43,512
887.47,532
886.50,541
885.54,546
884.57,540
883.61,526
882.64,508
881.68,486
880.72,455
879.75,428
878.79,406
877.82,392
876.86,386
875.89,388
874.93,392
873.97,397
873.00,397
872.04,398
871.07,401
870.11,404
869.15,402
868.18,398
867.22,397
866.25,396
865.29,385
864.32,375
863.36,372
862.40,373
861.43,371
860.47,364
859.50,354
858.54,339
857.57,327
856.61,315
855.65,302
854.68,290
853.72,282
852.75,284
851.79,286
850.82,286
849.86,286
848.90,286
847.93,283
846.97,277
846.00,275
845.04,271
844.08,265
843.11,261
842.15,263
841.18,275
840.22,295
839.25,306
838.29,303
837.33,285
836.36,246
835.40,196
834.43,165
833.47,195
832.50,246
831.54,251
830.58,242
829.61,237
828.65,238
827.68,234
826.72,227
825.75,218
824.79,216
823.83,222
822.86,229
821.90,230
820.93,222
819.97,208
819.01,193
818.04,180
817.08,172
816.11,170
815.15,171
814.18,173
813.22,176
812.26,176
811.29,173
810.33,168
809.36,163
808.40,159
807.43,154
806.47,150
805.51,149
804.54,150
803.58,151
802.61,151
801.65,150
800.68,149
799.72,148
798.76,144
797.79,143
796.83,142
795.86,137
794.90,125
793.94,115
792.97,110
792.01,104
791.04,98
790.08,95
789.11,91
788.15,86
787.19,83
786.22,85
785.26,91
784.29,97
783.33,102
782.36,105
781.40,108
780.44,109
779.47,102
778.51,94
777.54,91
776.58,91
775.61,90
774.65,87
773.69,87
772.72,86
771.76,87
770.79,91
769.83,101
768.87,110
767.90,111
766.94,112
765.97,117
765.01,126
764.04,133
763.08,134
762.12,128
761.15,115
760.19,103
759.22,94
758.26,87
757.29,80
756.33,75
755.37,71
754.40,74
753.44,84
752.47,95
751.51,101
750.54,103
749.58,105
748.62,114
747.65,126
746.69,137
745.72,144
744.76,145
743.79,137
742.83,121
741.87,103
740.90,88
739.94,81
738.97,81
738.01,83
737.05,80
736.08,74
735.12,75
734.15,88
733.19,105
732.22,115
731.26,111
730.30,107
729.33,117
728.37,135
727.40,153
726.44,164
725.47,169
724.51,173
723.55,177
722.58,182
721.62,189
720.65,197
719.69,203
718.72,207
717.76,212
716.80,219
715.83,228
714.87,237
713.90,243
712.94,247
711.98,250
711.01,258
710.05,271
709.08,288
708.12,306
707.15,317
706.19,319
705.23,311
704.26,298
703.30,278
702.33,253
701.37,224
700.40,191
699.44,152
698.48,115
697.51,83
696.55,59
695.58,44
694.62,39
693.65,38
692.69,31
691.73,22
690.76,14
689.80,6
688.83,-5
687.87,-1
686.91,56
685.94,41
684.98,-79
684.01,-192
683.05,-137
682.08,35
681.12,66
680.16,29
679.19,0
678.23,4
677.26,23
676.30,29
675.33,30
674.37,30
673.41,26
672.44,22
671.48,22
670.51,28
669.55,31
668.58,29
667.62,24
666.66,21
665.69,20
664.73,22
663.76,30
662.80,37
661.84,42
660.87,45
659.91,48
658.94,51
657.98,54
657.01,56
656.05,57
655.09,61
654.12,70
653.16,86
652.19,106
651.23,114
650.26,114
649.30,114
648.34,117
647.37,124
646.41,134
645.44,148
644.48,162
643.51,173
642.55,181
641.59,184
640.62,184
639.66,180
638.69,175
637.73,174
636.77,178
635.80,188
634.84,199
633.87,211
632.91,222
631.94,230
630.98,234
630.02,236
629.05,233
628.09,228
627.12,221
626.16,210
625.19,193
624.23,168
623.27,136
622.30,103
621.34,79
620.37,61
619.41,47
618.44,36
617.48,28
616.52,23
615.55,22
614.59,22
613.62,24
612.66,24
611.70,21
610.73,17
609.77,17
608.80,20
607.84,24
606.87,26
605.91,26
604.95,24
603.98,23
603.02,20
602.05,16
601.09,12
600.12,10
599.16,8
598.20,7
597.23,4
596.27,-2
595.30,-9
594.34,-12
593.37,-12
592.41,-7
591.45,0
590.48,6
589.52,6
588.55,0
587.59,-6
586.62,-8
585.66,-6
584.70,-5
583.73,-4
582.77,-0
581.80,6
580.84,11
579.88,14
578.91,17
577.95,20
576.98,21
576.02,24
575.05,32
574.09,40
573.13,46
572.16,51
571.20,58
570.23,61
569.27,63
568.30,63
567.34,63
566.38,64
565.41,66
564.45,69
563.48,72
562.52,77
561.55,83
560.59,87
559.63,82
558.66,77
557.70,75
556.73,78
555.77,83
554.81,90
553.84,93
552.88,93
551.91,92
550.95,91
549.98,91
549.02,93
548.06,94
547.09,93
546.13,89
545.16,81
544.20,71
543.23,62
542.27,62
541.31,65
540.34,65
539.38,60
538.41,52
537.45,44
536.48,39
535.52,37
534.56,39
533.59,43
532.63,48
531.66,52
530.70,53
529.74,54
528.77,54
527.81,55
526.84,57
525.88,59
524.91,62
523.95,64
522.99,65
522.02,65
521.06,65
520.09,67
519.13,67
518.16,66
517.20,63
516.24,59
515.27,53
514.31,50
513.34,50
512.38,52
511.41,51
510.45,45
509.49,40
508.52,36
507.56,35
506.59,36
505.63,39
504.67,42
503.70,40
502.74,40
501.77,42
500.81,45
499.84,46
498.88,46
497.92,45
496.95,45
495.99,46
495.02,46
494.06,44
493.09,45
492.13,53
491.17,64
490.20,71
489.24,74
488.27,80
487.31,100
486.34,126
485.38,146
484.42,158
483.45,164
482.49,166
481.52,167
480.56,161
479.60,146
478.63,124
477.67,107
476.70,99
475.74,92
474.77,87
473.81,84
472.85,85
471.88,89
470.92,95
469.95,98
468.99,97
468.02,96
467.06,96
466.10,98
465.13,100
464.17,104
463.20,109
462.24,117
461.27,126
460.31,130
459.35,131
458.38,132
457.42,135
456.45,141
455.49,148
454.53,153
453.56,153
452.60,151
451.63,149
450.67,150
449.70,144
448.74,136
447.78,130
446.81,127
445.85,122
444.88,119
443.92,118
442.95,117
441.99,115
441.03,112
440.06,111
439.10,112
438.13,111
437.17,105
436.20,96
435.24,90
434.28,90
433.31,89
432.35,87
431.38,84
430.42,84
429.45,87
428.49,92
427.53,95
426.56,94
425.60,88
424.63,80
423.67,73
422.71,72
421.74,73
420.78,76
419.81,77
418.85,75
417.88,71
416.92,67
415.96,62
414.99,57
414.03,50
413.06,43
412.10,41
411.13,42
410.17,45
409.21,48
408.24,50
407.28,49
406.31,45
405.35,41
404.38,37
403.42,34
402.46,36
401.49,40
400.53,44
399.56,46
398.60,45
397.64,40
396.67,33
395.71,29
394.74,31
393.78,39
392.81,50
391.85,53
390.89,50
389.92,43
388.96,38
387.99,37
387.03,42
386.06,48
385.10,54
384.14,59
383.17,60
382.21,60
381.24,58
380.28,57
379.31,54
378.35,51
377.39,50
376.42,56
375.46,66
374.49,75
373.53,78
372.57,75
371.60,80
370.64,89
369.67,94
368.71,90
367.74,81
366.78,74
365.82,68
364.85,64
363.89,61
362.92,59
361.96,54
360.99,47
360.03,37
359.07,28
358.10,24
357.14,26
356.17,35
355.21,46
354.24,57
353.28,62
352.32,59
351.35,46
350.39,32
349.42,21
348.46,16
347.50,16
346.53,22
345.57,29
344.60,34
343.64,36
342.67,34
341.71,31
340.75,31
339.78,30
338.82,29
337.85,27
336.89,25
335.92,26
334.96,27
334.00,28
333.03,29
332.07,31
331.10,27
330.14,20
329.17,17
328.21,20
327.25,28
326.28,34
325.32,38
324.35,38
323.39,37
322.43,36
321.46,36
320.50,36
319.53,33
318.57,28
317.60,20
316.64,15
315.68,16
314.71,20
313.75,24
312.78,27
311.82,28
310.85,29
309.89,29
308.93,26
307.96,21
307.00,12
306.03,3
305.07,-4
304.10,-5
303.14,1
302.18,9
301.21,13
300.25,13
299.28,10
298.32,5
297.36,-1
296.39,-2
295.43,2
294.46,8
293.50,13
292.53,14
291.57,11
290.61,7
289.64,5
288.68,3
287.71,3
286.75,2
285.78,4
284.82,7
283.86,9
282.89,11
281.93,9
280.96,6
280.00,4
279.03,1
278.07,-2
277.11,-7
276.14,-12
275.18,-13
274.21,-10
273.25,-3
272.28,-0
271.32,-0
270.36,-0
269.39,0
268.43,0
267.46,0
266.50,-0
265.54,-1
264.57,0
263.61,3
262.64,5
261.68,3
260.71,4
259.75,9
258.79,19
257.82,29
256.86,30
255.89,27
254.93,24
253.96,25
253.00,29
252.04,38
251.07,50
250.11,60
249.14,66
248.18,68
247.21,69
246.25,69
245.29,69
244.32,69
243.36,71
242.39,74
241.43,77
240.47,79
239.50,83
238.54,91
237.57,101
236.61,110
235.64,119
234.68,129
233.72,139
232.75,147
231.79,162
230.82,184
229.86,213
228.89,245
227.93,285
226.97,316
226.00,331
225.04,326
224.07,308
223.11,281
222.14,250
221.18,223
220.22,205
219.25,193
218.29,185
217.32,184
216.36,185
215.40,185
214.43,182
213.47,169
212.50,156
211.54,147
210.57,147
209.61,154
208.65,158
207.68,155
206.72,143
205.75,125
204.79,106
203.82,96
202.86,96
201.90,101
200.93,107
199.97,105
199.00,101
198.04,99
197.07,101
196.11,106
195.15,104
194.18,99
193.22,93
192.25,88
191.29,83
190.33,77
189.36,67
188.40,58
187.43,50
186.47,47
185.50,48
184.54,50
183.58,50
182.61,48
181.65,42
180.68,34
179.72,24
178.75,15
177.79,9
176.83,11
175.86,16
174.90,19
173.93,22
172.97,24
172.00,23
171.04,18
170.08,12
169.11,7
168.15,3
167.18,-0
166.22,-2
165.26,0
164.29,6
163.33,15
162.36,23
161.40,30
160.43,36
159.47,44
158.51,53
157.54,62
156.58,68
155.61,73
154.65,77
153.68,80
152.72,85
151.76,90
150.79,95
149.83,101
148.86,109
147.90,118
146.93,129
145.97,139
145.01,149
144.04,158
143.08,166
142.11,178
141.15,191
140.19,207
139.22,225
138.26,243
137.29,259
136.33,274
135.36,290
134.40,300
133.44,303
132.47,307
131.51,315
130.54,331
129.58,358
128.61,386
127.65,413
126.69,434
125.72,448
124.76,457
123.79,468
122.83,486
121.86,511
120.90,545
119.94,577
118.97,607
118.01,636
117.04,666
116.08,693
115.11,716
114.15,739
113.19,765
112.22,797
111.26,835
110.29,877
109.33,924
108.37,974
107.40,1024
106.44,1071
105.47,1115
104.51,1157
103.54,1197
102.58,1241
101.62,1299
100.65,1365
99.69,1433
98.72,1500
97.76,1567
96.79,1631
95.83,1695
94.87,1762
93.90,1831
92.94,1905
91.97,1981
91.01,2057
90.04,2132
89.08,2203
88.12,2264
87.15,2321
86.19,2378
85.22,2437
84.26,2498
83.30,2557
82.33,2614
81.37,2669
80.40,2719
79.44,2764
78.47,2817
77.51,2876
76.55,2939
