Created As Omnic File,PLAS 195
Raman Shift / cm-1,INT
3418.58,-12
3417.61,-8
3416.65,-9
3415.68,-11
3414.72,-6
3413.76,-0
3412.79,-1
3411.83,-5
3410.86,-7
3409.90,-10
3408.94,-13
3407.97,-12
3407.01,-8
3406.04,-5
3405.08,-2
3404.11,1
3403.15,2
3402.19,-1
3401.22,-9
3400.26,-8
3399.29,-5
3398.33,-6
3397.36,-6
3396.40,-5
3395.44,-3
3394.47,-3
3393.51,-4
3392.54,-5
3391.58,-4
3390.61,-2
3389.65,-0
3388.69,-2
3387.72,-4
3386.76,-3
3385.79,-1
3384.83,2
3383.87,3
3382.90,3
3381.94,3
3380.97,2
3380.01,-2
3379.04,-4
3378.08,-3
3377.12,-4
3376.15,-5
3375.19,-1
3374.22,3
3373.26,8
3372.29,9
3371.33,4
3370.37,-0
3369.40,1
3368.44,2
3367.47,0
3366.51,0
3365.54,-1
3364.58,-2
3363.62,-4
3362.65,-4
3361.69,-3
3360.72,-2
3359.76,-2
3358.80,-4
3357.83,-5
3356.87,-2
3355.90,-1
3354.94,-6
3353.97,-7
3353.01,-6
3352.05,-6
3351.08,-7
3350.12,-6
3349.15,-5
3348.19,-6
3347.22,-7
3346.26,-6
3345.30,-3
3344.33,-2
3343.37,-3
3342.40,-4
3341.44,-4
3340.47,-3
3339.51,-1
3338.55,-0
3337.58,-3
3336.62,-8
3335.65,-9
3334.69,-6
3333.73,-6
3332.76,-6
3331.80,-4
3330.83,-3
3329.87,-6
3328.90,-10
3327.94,-9
3326.98,-6
3326.01,-7
3325.05,-7
3324.08,-5
3323.12,-6
3322.15,-9
3321.19,-7
3320.23,-3
3319.26,-3
3318.30,-4
3317.33,-7
3316.37,-9
3315.40,-9
3314.44,-7
3313.48,-8
3312.51,-10
3311.55,-11
3310.58,-11
3309.62,-8
3308.66,-6
3307.69,-7
3306.73,-5
3305.76,-0
3304.80,-1
3303.83,-7
3302.87,-8
3301.91,-7
3300.94,-8
3299.98,-7
3299.01,-4
3298.05,-0
3297.08,3
3296.12,3
3295.16,-2
3294.19,-2
3293.23,3
3292.26,5
3291.30,3
3290.33,-2
3289.37,-4
3288.41,-6
3287.44,-8
3286.48,-8
3285.51,-8
3284.55,-6
3283.59,-4
3282.62,-1
3281.66,2
3280.69,4
3279.73,5
3278.76,3
3277.80,0
3276.84,-2
3275.87,-3
3274.91,-2
3273.94,-1
3272.98,-2
3272.01,-0
3271.05,4
3270.09,3
3269.12,-4
3268.16,-4
3267.19,-1
3266.23,-0
3265.26,1
3264.30,1
3263.34,1
3262.37,3
3261.41,6
3260.44,6
3259.48,6
3258.51,5
3257.55,3
3256.59,-0
3255.62,-1
3254.66,1
3253.69,2
3252.73,2
3251.77,4
3250.80,6
3249.84,5
3248.87,2
3247.91,2
3246.94,3
3245.98,3
3245.02,4
3244.05,5
3243.09,4
3242.12,1
3241.16,-2
3240.19,-2
3239.23,1
3238.27,6
3237.30,8
3236.34,7
3235.37,5
3234.41,2
3233.44,2
3232.48,3
3231.52,5
3230.55,7
3229.59,8
3228.62,7
3227.66,7
3226.70,6
3225.73,0
3224.77,-5
3223.80,-4
3222.84,-3
3221.87,-2
3220.91,0
3219.95,5
3218.98,7
3218.02,5
3217.05,2
3216.09,2
3215.12,2
3214.16,3
3213.20,3
3212.23,4
3211.27,4
3210.30,3
3209.34,2
3208.37,1
3207.41,-3
3206.45,-6
3205.48,-4
3204.52,-2
3203.55,-3
3202.59,-4
3201.63,-3
3200.66,-2
3199.70,-2
3198.73,-2
3197.77,-2
3196.80,-3
3195.84,-2
3194.88,-2
3193.91,-3
3192.95,-2
3191.98,1
3191.02,-1
3190.05,-5
3189.09,-5
3188.13,-3
3187.16,-2
3186.20,-2
3185.23,-2
3184.27,-2
3183.30,-2
3182.34,-3
3181.38,-4
3180.41,-3
3179.45,-1
3178.48,-1
3177.52,-2
3176.56,-0
3175.59,2
3174.63,-2
3173.66,-11
3172.70,-13
3171.73,-8
3170.77,-1
3169.81,3
3168.84,3
3167.88,-0
3166.91,-4
3165.95,-6
3164.98,-6
3164.02,-6
3163.06,-8
3162.09,-8
3161.13,-3
3160.16,1
3159.20,1
3158.23,-3
3157.27,-7
3156.31,-7
3155.34,-2
3154.38,3
3153.41,5
3152.45,-0
3151.49,-6
3150.52,-7
3149.56,-2
3148.59,-1
3147.63,-3
3146.66,-4
3145.70,-5
3144.74,-7
3143.77,-9
3142.81,-7
3141.84,-5
3140.88,-5
3139.91,-6
3138.95,-7
3137.99,-8
3137.02,-7
3136.06,-6
3135.09,-2
3134.13,0
3133.16,-0
3132.20,-1
3131.24,-5
3130.27,-7
3129.31,-6
3128.34,-5
3127.38,-6
3126.42,-6
3125.45,-4
3124.49,-3
3123.52,-4
3122.56,-2
3121.59,-1
3120.63,-2
3119.67,-3
3118.70,-1
3117.74,1
3116.77,0
3115.81,-2
3114.84,-5
3113.88,-7
3112.92,-2
3111.95,5
3110.99,6
3110.02,8
3109.06,12
3108.09,11
3107.13,4
3106.17,-2
3105.20,-1
3104.24,2
3103.27,4
3102.31,9
3101.34,14
3100.38,17
3099.42,18
3098.45,19
3097.49,21
3096.52,21
3095.56,19
3094.60,19
3093.63,20
3092.67,19
3091.70,20
3090.74,21
3089.77,25
3088.81,31
3087.85,36
3086.88,37
3085.92,38
3084.95,43
3083.99,49
3083.02,53
3082.06,56
3081.10,61
3080.13,64
3079.17,62
3078.20,63
3077.24,74
3076.27,85
3075.31,93
3074.35,98
3073.38,101
3072.42,103
3071.45,108
3070.49,117
3069.53,128
3068.56,137
3067.60,144
3066.63,155
3065.67,169
3064.70,183
3063.74,195
3062.78,205
3061.81,216
3060.85,228
3059.88,243
3058.92,262
3057.95,283
3056.99,303
3056.03,320
3055.06,334
3054.10,352
3053.13,380
3052.17,409
3051.20,434
3050.24,456
3049.28,480
3048.31,507
3047.35,538
3046.38,572
3045.42,606
3044.46,638
3043.49,670
3042.53,703
3041.56,740
3040.60,776
3039.63,809
3038.67,845
3037.71,886
3036.74,926
3035.78,961
3034.81,994
3033.85,1028
3032.88,1065
3031.92,1107
3030.96,1143
3029.99,1169
3029.03,1202
3028.06,1239
3027.10,1271
3026.13,1301
3025.17,1333
3024.21,1364
3023.24,1391
3022.28,1418
3021.31,1452
3020.35,1487
3019.39,1516
3018.42,1548
3017.46,1583
3016.49,1617
3015.53,1649
3014.56,1679
3013.60,1711
3012.64,1749
3011.67,1795
3010.71,1838
3009.74,1872
3008.78,1906
3007.81,1949
3006.85,1989
3005.89,2020
3004.92,2050
3003.96,2078
3002.99,2099
3002.03,2110
3001.06,2119
3000.10,2126
2999.14,2128
2998.17,2123
2997.21,2113
2996.24,2101
2995.28,2081
2994.32,2053
2993.35,2028
2992.39,2001
2991.42,1970
2990.46,1938
2989.49,1907
2988.53,1875
2987.57,1841
2986.60,1805
2985.64,1765
2984.67,1727
2983.71,1702
2982.74,1686
2981.78,1676
2980.82,1671
2979.85,1672
2978.89,1681
2977.92,1706
2976.96,1742
2975.99,1783
2975.03,1831
2974.07,1893
2973.10,1967
2972.14,2058
2971.17,2160
2970.21,2270
2969.25,2392
2968.28,2523
2967.32,2667
2966.35,2830
2965.39,3002
2964.42,3182
2963.46,3371
2962.50,3568
2961.53,3773
2960.57,3978
2959.60,4190
2958.64,4415
2957.67,4641
2956.71,4861
2955.75,5068
2954.78,5249
2953.82,5398
2952.85,5515
2951.89,5599
2950.92,5638
2949.96,5620
2949.00,5534
2948.03,5404
2947.07,5236
2946.10,5045
2945.14,4834
2944.17,4632
2943.21,4454
2942.25,4301
2941.28,4173
2940.32,4070
2939.35,3992
2938.39,3930
2937.43,3883
2936.46,3846
2935.50,3819
2934.53,3782
2933.57,3738
2932.60,3684
2931.64,3616
2930.68,3538
2929.71,3453
2928.75,3355
2927.78,3244
2926.82,3129
2925.85,3004
2924.89,2884
2923.93,2769
2922.96,2659
2922.00,2557
2921.03,2460
2920.07,2368
2919.10,2284
2918.14,2208
2917.18,2134
2916.21,2061
2915.25,1997
2914.28,1941
2913.32,1886
2912.36,1836
2911.39,1789
2910.43,1743
2909.46,1696
2908.50,1652
2907.53,1613
2906.57,1574
2905.61,1530
2904.64,1484
2903.68,1444
2902.71,1410
2901.75,1378
2900.78,1345
2899.82,1310
2898.86,1276
2897.89,1246
2896.93,1218
2895.96,1189
2895.00,1159
2894.03,1130
2893.07,1106
2892.11,1088
2891.14,1073
2890.18,1052
2889.21,1027
2888.25,999
2887.29,972
2886.32,949
2885.36,930
2884.39,909
2883.43,883
2882.46,853
2881.50,824
2880.54,793
2879.57,766
2878.61,744
2877.64,716
2876.68,685
2875.71,656
2874.75,627
2873.79,599
2872.82,571
2871.86,542
2870.89,515
2869.93,489
2868.96,465
2868.00,448
2867.04,443
2866.07,435
2865.11,418
2864.14,405
2863.18,401
2862.22,400
2861.25,401
2860.29,403
2859.32,408
2858.36,418
2857.39,432
2856.43,447
2855.47,466
2854.50,491
2853.54,522
2852.57,554
2851.61,586
2850.64,617
2849.68,647
2848.72,683
2847.75,725
2846.79,764
2845.82,793
2844.86,816
2843.89,830
2842.93,836
2841.97,836
2841.00,823
2840.04,797
2839.07,761
2838.11,714
2837.15,661
2836.18,607
2835.22,553
2834.25,499
2833.29,447
2832.32,399
2831.36,353
2830.40,307
2829.43,269
2828.47,243
2827.50,219
2826.54,196
2825.57,173
2824.61,149
2823.65,130
2822.68,117
2821.72,108
2820.75,100
2819.79,92
2818.82,85
2817.86,74
2816.90,61
2815.93,51
2814.97,46
2814.00,45
2813.04,42
2812.08,35
2811.11,27
2810.15,23
2809.18,24
2808.22,26
2807.25,24
2806.29,19
2805.33,15
2804.36,13
2803.40,12
2802.43,12
2801.47,12
2800.50,12
2799.54,10
2798.58,8
2797.61,5
2796.65,3
2795.68,5
2794.72,7
2793.75,7
2792.79,5
2791.83,1
2790.86,-2
2789.90,-1
2788.93,-0
2787.97,-0
2787.00,1
2786.04,3
2785.08,5
2784.11,6
2783.15,6
2782.18,4
2781.22,2
2780.26,5
2779.29,8
2778.33,9
2777.36,13
2776.40,20
2775.43,26
2774.47,28
2773.51,31
2772.54,36
2771.58,39
2770.61,41
2769.65,42
2768.68,47
2767.72,54
2766.76,59
2765.79,59
2764.83,56
2763.86,54
2762.90,61
2761.93,69
2760.97,71
2760.01,71
2759.04,70
2758.08,68
2757.11,67
2756.15,63
2755.19,56
2754.22,50
2753.26,50
2752.29,51
2751.33,52
2750.36,51
2749.40,49
2748.44,44
2747.47,42
2746.51,41
2745.54,40
2744.58,39
2743.61,38
2742.65,37
2741.69,38
2740.72,38
2739.76,38
2738.79,38
2737.83,39
2736.86,42
2735.90,44
2734.94,46
2733.97,48
2733.01,50
2732.04,49
2731.08,48
2730.12,49
2729.15,51
2728.19,51
2727.22,49
2726.26,47
2725.29,45
2724.33,41
2723.37,38
2722.40,36
2721.44,34
2720.47,32
2719.51,32
2718.54,31
2717.58,32
2716.62,35
2715.65,38
2714.69,36
2713.72,29
2712.76,23
2711.79,21
2710.83,19
2709.87,18
2708.90,17
2707.94,15
2706.97,14
2706.01,16
2705.05,15
2704.08,13
2703.12,13
2702.15,11
2701.19,10
2700.22,10
2699.26,9
2698.30,4
2697.33,0
2696.37,-3
2695.40,-2
2694.44,3
2693.47,5
2692.51,2
2691.55,2
2690.58,5
2689.62,9
2688.65,10
2687.69,9
2686.72,11
2685.76,13
2684.80,14
2683.83,12
2682.87,8
2681.90,2
2680.94,-0
2679.98,0
2679.01,2
2678.05,6
2677.08,9
2676.12,11
2675.15,7
2674.19,1
2673.23,2
2672.26,7
2671.30,4
2670.33,-0
2669.37,-0
2668.40,1
2667.44,0
2666.48,-1
2665.51,-0
2664.55,1
2663.58,4
2662.62,6
2661.65,6
2660.69,4
2659.73,5
2658.76,9
2657.80,8
2656.83,3
2655.87,5
2654.91,10
2653.94,8
2652.98,2
2652.01,-1
2651.05,2
2650.08,4
2649.12,3
2648.16,0
2647.19,-0
2646.23,2
2645.26,6
2644.30,8
2643.33,8
2642.37,9
2641.41,11
2640.44,11
2639.48,11
2638.51,8
2637.55,4
2636.58,3
2635.62,2
2634.66,1
2633.69,-1
2632.73,-4
2631.76,-8
2630.80,-8
2629.83,-3
2628.87,5
2627.91,8
2626.94,5
2625.98,1
2625.01,-3
2624.05,-4
2623.09,-3
2622.12,-4
2621.16,-8
2620.19,-6
2619.23,-1
2618.26,-3
2617.30,-8
2616.34,-9
2615.37,-6
2614.41,-5
2613.44,-7
2612.48,-8
2611.51,-8
2610.55,-6
2609.59,-2
2608.62,-0
2607.66,-4
2606.69,-6
2605.73,-7
2604.76,-6
2603.80,-3
2602.84,-1
2601.87,0
2600.91,-0
2599.94,-2
2598.98,-3
2598.02,-2
2597.05,-0
2596.09,-1
2595.12,-1
2594.16,-2
2593.19,-2
2592.23,2
2591.27,5
2590.30,4
2589.34,2
2588.37,3
2587.41,6
2586.44,5
2585.48,2
2584.52,2
2583.55,2
2582.59,-3
2581.62,-6
2580.66,-2
2579.69,4
2578.73,5
2577.77,-0
2576.80,-4
2575.84,-2
2574.87,-1
2573.91,-1
2572.95,-3
2571.98,-8
2571.02,-13
2570.05,-12
2569.09,-10
2568.12,-7
2567.16,-5
2566.20,-8
2565.23,-11
2564.27,-10
2563.30,-8
2562.34,-11
2561.37,-12
2560.41,-12
2559.45,-14
2558.48,-17
2557.52,-18
2556.55,-20
2555.59,-19
2554.62,-13
2553.66,-9
2552.70,-13
2551.73,-20
2550.77,-22
2549.80,-19
2548.84,-17
2547.88,-14
2546.91,-14
2545.95,-17
2544.98,-16
2544.02,-10
2543.05,-7
2542.09,-8
2541.13,-9
2540.16,-11
2539.20,-13
2538.23,-12
2537.27,-10
2536.30,-10
2535.34,-10
2534.38,-4
2533.41,1
2532.45,-4
2531.48,-9
2530.52,-9
2529.55,-8
2528.59,-5
2527.63,-1
2526.66,1
2525.70,1
2524.73,1
2523.77,0
2522.81,-4
2521.84,-8
2520.88,-7
2519.91,-1
2518.95,3
2517.98,2
2517.02,0
2516.06,-1
2515.09,1
2514.13,7
2513.16,10
2512.20,7
2511.23,0
2510.27,-4
2509.31,-3
2508.34,4
2507.38,11
2506.41,10
2505.45,7
2504.48,7
2503.52,9
2502.56,10
2501.59,10
2500.63,6
2499.66,2
2498.70,3
2497.74,7
2496.77,9
2495.81,7
2494.84,5
2493.88,3
2492.91,2
2491.95,4
2490.99,6
2490.02,8
2489.06,9
2488.09,9
2487.13,5
2486.16,-1
2485.20,-5
2484.24,-2
2483.27,2
2482.31,2
2481.34,2
2480.38,5
2479.41,5
2478.45,3
2477.49,0
2476.52,-1
2475.56,-2
2474.59,-3
2473.63,-3
2472.66,-2
2471.70,-2
2470.74,-2
2469.77,-1
2468.81,-1
2467.84,-1
2466.88,2
2465.92,6
2464.95,6
2463.99,5
2463.02,6
2462.06,9
2461.09,9
2460.13,2
2459.17,-3
2458.20,-4
2457.24,-2
2456.27,2
2455.31,8
2454.34,15
2453.38,21
2452.42,23
2451.45,21
2450.49,19
2449.52,19
2448.56,22
2447.59,27
2446.63,31
2445.67,33
2444.70,38
2443.74,46
2442.77,56
2441.81,64
2440.85,68
2439.88,69
2438.92,68
2437.95,65
2436.99,63
2436.02,65
2435.06,66
2434.10,61
2433.13,55
2432.17,50
2431.20,46
2430.24,43
2429.27,40
2428.31,37
2427.35,32
2426.38,25
2425.42,17
2424.45,13
2423.49,14
2422.52,15
2421.56,15
2420.60,14
2419.63,12
2418.67,10
2417.70,10
2416.74,11
2415.78,13
2414.81,9
2413.85,-3
2412.88,-12
2411.92,-12
2410.95,-4
2409.99,4
2409.03,9
2408.06,6
2407.10,1
2406.13,-4
2405.17,-6
2404.20,-6
2403.24,-6
2402.28,-3
2401.31,-0
2400.35,-0
2399.38,-1
2398.42,2
2397.45,9
2396.49,11
2395.53,6
2394.56,-0
2393.60,1
2392.63,5
2391.67,3
2390.71,1
2389.74,3
2388.78,7
2387.81,9
2386.85,9
2385.88,9
2384.92,9
2383.96,7
2382.99,3
2382.03,-0
2381.06,-1
2380.10,2
2379.13,6
2378.17,10
2377.21,12
2376.24,14
2375.28,16
2374.31,15
2373.35,9
2372.38,3
2371.42,-0
2370.46,-0
2369.49,2
2368.53,4
2367.56,5
2366.60,6
2365.64,8
2364.67,9
2363.71,3
2362.74,-7
2361.78,-9
2360.81,-1
2359.85,2
2358.89,-3
2357.92,-9
2356.96,-9
2355.99,-4
2355.03,-0
2354.06,3
2353.10,3
2352.14,-3
2351.17,-6
2350.21,-8
2349.24,-4
2348.28,4
2347.31,4
2346.35,-2
2345.39,-7
2344.42,-9
2343.46,-9
2342.49,-7
2341.53,-6
2340.57,-5
2339.60,-4
2338.64,-4
2337.67,-3
2336.71,-4
2335.74,-7
2334.78,-9
2333.82,-10
2332.85,-9
2331.89,-5
2330.92,0
2329.96,7
2328.99,14
2328.03,19
2327.07,17
2326.10,7
2325.14,1
2324.17,3
2323.21,4
2322.24,3
2321.28,0
2320.32,-2
2319.35,-2
2318.39,-0
2317.42,2
2316.46,3
2315.49,3
2314.53,2
2313.57,3
2312.60,5
2311.64,9
2310.67,11
2309.71,12
2308.75,10
2307.78,4
2306.82,-0
2305.85,0
2304.89,1
2303.92,0
2302.96,1
2302.00,5
2301.03,9
2300.07,6
2299.10,2
2298.14,1
2297.17,1
2296.21,4
2295.25,8
2294.28,7
2293.32,4
2292.35,5
2291.39,9
2290.42,12
2289.46,11
2288.50,9
2287.53,6
2286.57,6
2285.60,9
2284.64,12
2283.68,10
2282.71,5
2281.75,7
2280.78,11
2279.82,13
2278.85,11
2277.89,7
2276.93,3
2275.96,3
2275.00,8
2274.03,11
2273.07,9
2272.10,7
2271.14,13
2270.18,19
2269.21,16
2268.25,8
2267.28,3
2266.32,2
2265.35,2
2264.39,2
2263.43,2
2262.46,3
2261.50,3
2260.53,4
2259.57,6
2258.61,4
2257.64,-1
2256.68,-3
2255.71,-2
2254.75,-1
2253.78,1
2252.82,3
2251.86,3
2250.89,4
2249.93,5
2248.96,5
2248.00,2
2247.03,-3
2246.07,-6
2245.11,-6
2244.14,-7
2243.18,-6
2242.21,-4
2241.25,-3
2240.28,-4
2239.32,-4
2238.36,-7
2237.39,-9
2236.43,-9
2235.46,-6
2234.50,-8
2233.54,-12
2232.57,-13
2231.61,-12
2230.64,-9
2229.68,-5
2228.71,-5
2227.75,-9
2226.79,-13
2225.82,-17
2224.86,-20
2223.89,-19
2222.93,-16
2221.96,-15
2221.00,-16
2220.04,-14
2219.07,-13
2218.11,-16
2217.14,-19
2216.18,-19
2215.21,-16
2214.25,-12
2213.29,-12
2212.32,-16
2211.36,-19
2210.39,-19
2209.43,-18
2208.47,-20
2207.50,-21
2206.54,-21
2205.57,-18
2204.61,-11
2203.64,-2
2202.68,5
2201.72,7
2200.75,4
2199.79,-0
2198.82,-2
2197.86,-3
2196.89,-9
2195.93,-16
2194.97,-20
2194.00,-20
2193.04,-18
2192.07,-13
2191.11,-7
2190.14,-1
2189.18,2
2188.22,-0
2187.25,-2
2186.29,-2
2185.32,-1
2184.36,-2
2183.40,-3
2182.43,-3
2181.47,-2
2180.50,-3
2179.54,-5
2178.57,-5
2177.61,-3
2176.65,-0
2175.68,1
2174.72,1
2173.75,1
2172.79,2
2171.82,0
2170.86,-1
2169.90,0
2168.93,1
2167.97,-2
2167.00,-10
2166.04,-15
2165.07,-14
2164.11,-10
2163.15,-4
2162.18,-0
2161.22,-1
2160.25,-3
2159.29,-4
2158.32,-3
2157.36,0
2156.40,2
2155.43,-1
2154.47,-8
2153.50,-11
2152.54,-7
2151.58,-1
2150.61,6
2149.65,8
2148.68,1
2147.72,-6
2146.75,-3
2145.79,1
2144.83,3
2143.86,3
2142.90,3
2141.93,3
2140.97,-0
2140.00,-6
2139.04,-8
2138.08,-7
2137.11,-3
2136.15,0
2135.18,2
2134.22,2
2133.25,3
2132.29,3
2131.33,2
2130.36,1
2129.40,-2
2128.43,-4
2127.47,-3
2126.51,-3
2125.54,-6
2124.58,-9
2123.61,-5
2122.65,-0
2121.68,3
2120.72,4
2119.76,1
2118.79,-5
2117.83,-6
2116.86,-5
2115.90,-4
2114.93,-2
2113.97,-1
2113.01,-3
2112.04,-3
2111.08,2
2110.11,6
2109.15,6
2108.18,4
2107.22,-1
2106.26,-7
2105.29,-7
2104.33,-2
2103.36,2
2102.40,3
2101.44,5
2100.47,10
2099.51,12
2098.54,9
2097.58,3
2096.61,-2
2095.65,-4
2094.69,-0
2093.72,8
2092.76,10
2091.79,8
2090.83,11
2089.86,15
2088.90,16
2087.94,13
2086.97,10
2086.01,11
2085.04,14
2084.08,14
2083.11,13
2082.15,14
2081.19,17
2080.22,15
2079.26,11
2078.29,9
2077.33,11
2076.37,14
2075.40,17
2074.44,18
2073.47,17
2072.51,13
2071.54,10
2070.58,7
2069.62,7
2068.65,13
2067.69,17
2066.72,17
2065.76,18
2064.79,24
2063.83,28
2062.87,27
2061.90,24
2060.94,19
2059.97,15
2059.01,14
2058.04,15
2057.08,15
2056.12,11
2055.15,9
2054.19,10
2053.22,13
2052.26,9
2051.30,2
2050.33,4
2049.37,9
2048.40,8
2047.44,3
2046.47,3
2045.51,7
2044.55,11
2043.58,13
2042.62,15
2041.65,16
2040.69,17
2039.72,13
2038.76,6
2037.80,4
2036.83,4
2035.87,3
2034.90,4
2033.94,4
2032.97,0
2032.01,-2
2031.05,-1
2030.08,-1
2029.12,-4
2028.15,-8
2027.19,-8
2026.23,-5
2025.26,-4
2024.30,-7
2023.33,-8
2022.37,-6
2021.40,-5
2020.44,-8
2019.48,-11
2018.51,-11
2017.55,-10
2016.58,-9
2015.62,-9
2014.65,-11
2013.69,-13
2012.73,-13
2011.76,-11
2010.80,-6
2009.83,1
2008.87,7
2007.90,12
2006.94,13
2005.98,8
2005.01,-2
2004.05,-9
2003.08,-14
2002.12,-14
2001.15,-11
2000.19,-6
1999.23,-2
1998.26,-1
1997.30,-6
1996.33,-12
1995.37,-10
1994.41,-3
1993.44,-0
1992.48,1
1991.51,-0
1990.55,-2
1989.58,-4
1988.62,-4
1987.66,-2
1986.69,1
1985.73,2
1984.76,1
1983.80,1
1982.83,3
1981.87,8
1980.91,10
1979.94,7
1978.98,1
1978.01,-3
1977.05,-2
1976.08,1
1975.12,3
1974.16,3
1973.19,0
1972.23,-3
1971.26,-3
1970.30,0
1969.34,5
1968.37,8
1967.41,7
1966.44,6
1965.48,5
1964.51,5
1963.55,6
1962.59,9
1961.62,10
1960.66,10
1959.69,7
1958.73,1
1957.76,-2
1956.80,-4
1955.84,-4
1954.87,1
1953.91,9
1952.94,10
1951.98,7
1951.01,6
1950.05,5
1949.09,4
1948.12,2
1947.16,1
1946.19,-1
1945.23,-2
1944.27,-2
1943.30,-1
1942.34,1
1941.37,2
1940.41,4
1939.44,7
1938.48,8
1937.52,5
1936.55,2
1935.59,-2
1934.62,-4
1933.66,-5
1932.69,-4
1931.73,-3
1930.77,-3
1929.80,-5
1928.84,-7
1927.87,-9
1926.91,-8
1925.94,-5
1924.98,-2
1924.02,-0
1923.05,1
1922.09,1
1921.12,1
1920.16,-1
1919.20,-1
1918.23,1
1917.27,4
1916.30,4
1915.34,-0
1914.37,-6
1913.41,-11
1912.45,-14
1911.48,-15
1910.52,-13
1909.55,-10
1908.59,-10
1907.62,-13
1906.66,-16
1905.70,-16
1904.73,-13
1903.77,-10
1902.80,-10
1901.84,-9
1900.87,-9
1899.91,-10
1898.95,-10
1897.98,-8
1897.02,-6
1896.05,-5
1895.09,-4
1894.13,-5
1893.16,-6
1892.20,-5
1891.23,-6
1890.27,-9
1889.30,-13
1888.34,-14
1887.38,-12
1886.41,-6
1885.45,0
1884.48,4
1883.52,3
1882.55,-3
1881.59,-9
1880.63,-11
1879.66,-8
1878.70,-4
1877.73,-4
1876.77,-6
1875.80,-7
1874.84,-4
1873.88,0
1872.91,1
1871.95,1
1870.98,-0
1870.02,-1
1869.06,0
1868.09,6
1867.13,10
1866.16,8
1865.20,7
1864.23,6
1863.27,4
1862.31,2
1861.34,1
1860.38,-1
1859.41,-2
1858.45,-4
1857.48,-6
1856.52,-6
1855.56,-4
1854.59,-1
1853.63,3
1852.66,8
1851.70,9
1850.73,7
1849.77,2
1848.81,-1
1847.84,-2
1846.88,-4
1845.91,-4
1844.95,-1
1843.98,2
1843.02,5
1842.06,8
1841.09,9
1840.13,5
1839.16,-2
1838.20,-7
1837.24,-7
1836.27,-2
1835.31,3
1834.34,2
1833.38,-1
1832.41,-4
1831.45,-6
1830.49,-7
1829.52,-5
1828.56,-3
1827.59,-3
1826.63,-4
1825.66,-4
1824.70,-4
1823.74,-1
1822.77,3
1821.81,1
1820.84,-3
1819.88,-8
1818.91,-8
1817.95,-7
1816.99,-7
1816.02,-8
1815.06,-10
1814.09,-11
1813.13,-10
1812.17,-9
1811.20,-6
1810.24,-4
1809.27,-2
1808.31,-0
1807.34,2
1806.38,4
1805.42,3
1804.45,3
1803.49,5
1802.52,5
1801.56,4
1800.59,3
1799.63,3
1798.67,5
1797.70,5
1796.74,5
1795.77,3
1794.81,0
1793.84,0
1792.88,5
1791.92,10
1790.95,11
1789.99,10
1789.02,6
1788.06,1
1787.10,-1
1786.13,2
1785.17,7
1784.20,13
1783.24,20
1782.27,22
1781.31,19
1780.35,16
1779.38,15
1778.42,17
1777.45,22
1776.49,26
1775.52,25
1774.56,23
1773.60,20
1772.63,18
1771.67,17
1770.70,18
1769.74,23
1768.77,29
1767.81,33
1766.85,33
1765.88,30
1764.92,29
1763.95,30
1762.99,33
1762.03,37
1761.06,43
1760.10,50
1759.13,52
1758.17,46
1757.20,40
1756.24,43
1755.28,54
1754.31,66
1753.35,80
1752.38,96
1751.42,115
1750.45,132
1749.49,150
1748.53,174
1747.56,208
1746.60,246
1745.63,278
1744.67,307
1743.70,340
1742.74,378
1741.78,414
1740.81,441
1739.85,466
1738.88,492
1737.92,517
1736.96,539
1735.99,558
1735.03,577
1734.06,594
1733.10,611
1732.13,628
1731.17,642
1730.21,659
1729.24,676
1728.28,685
1727.31,682
1726.35,673
1725.38,663
1724.42,646
1723.46,619
1722.49,588
1721.53,556
1720.56,522
1719.60,482
1718.63,433
1717.67,381
1716.71,332
1715.74,286
1714.78,246
1713.81,211
1712.85,180
1711.89,152
1710.92,126
1709.96,102
1708.99,82
1708.03,67
1707.06,56
1706.10,47
1705.14,41
1704.17,33
1703.21,24
1702.24,17
1701.28,14
1700.31,14
1699.35,16
1698.39,17
1697.42,15
1696.46,10
1695.49,5
1694.53,5
1693.56,6
1692.60,5
1691.64,3
1690.67,5
1689.71,8
1688.74,7
1687.78,4
1686.81,4
1685.85,6
1684.89,5
1683.92,0
1682.96,-6
1681.99,-8
1681.03,-5
1680.07,-2
1679.10,1
1678.14,2
1677.17,1
1676.21,-2
1675.24,-2
1674.28,1
1673.32,6
1672.35,11
1671.39,9
1670.42,1
1669.46,-7
1668.49,-9
1667.53,-5
1666.57,1
1665.60,5
1664.64,7
1663.67,7
1662.71,1
1661.74,-6
1660.78,-9
1659.82,-5
1658.85,2
1657.89,5
1656.92,2
1655.96,-2
1655.00,-6
1654.03,-7
1653.07,-5
1652.10,-1
1651.14,1
1650.17,2
1649.21,5
1648.25,11
1647.28,15
1646.32,12
1645.35,7
1644.39,7
1643.42,10
1642.46,9
1641.50,6
1640.53,6
1639.57,9
1638.60,12
1637.64,13
1636.67,11
1635.71,9
1634.75,7
1633.78,5
1632.82,5
1631.85,6
1630.89,3
1629.93,-3
1628.96,-6
1628.00,-10
1627.03,-10
1626.07,-6
1625.10,-2
1624.14,-1
1623.18,-1
1622.21,-0
1621.25,-1
1620.28,-1
1619.32,-0
1618.35,0
1617.39,-1
1616.43,-1
1615.46,2
1614.50,5
1613.53,7
1612.57,7
1611.60,3
1610.64,-0
1609.68,-1
1608.71,1
1607.75,5
1606.78,11
1605.82,17
1604.86,19
1603.89,18
1602.93,16
1601.96,18
1601.00,18
1600.03,9
1599.07,-1
1598.11,-2
1597.14,4
1596.18,10
1595.21,13
1594.25,16
1593.28,17
1592.32,16
1591.36,13
1590.39,10
1589.43,9
1588.46,10
1587.50,11
1586.53,12
1585.57,12
1584.61,12
1583.64,9
1582.68,8
1581.71,7
1580.75,5
1579.79,2
1578.82,4
1577.86,10
1576.89,16
1575.93,18
1574.96,14
1574.00,9
1573.04,4
1572.07,4
1571.11,10
1570.14,19
1569.18,20
1568.21,14
1567.25,7
1566.29,2
1565.32,2
1564.36,7
1563.39,15
1562.43,18
1561.46,16
1560.50,12
1559.54,11
1558.57,13
1557.61,16
1556.64,20
1555.68,20
1554.72,18
1553.75,15
1552.79,14
1551.82,13
1550.86,12
1549.89,11
1548.93,11
1547.97,9
1547.00,8
1546.04,7
1545.07,4
1544.11,1
1543.14,0
1542.18,-1
1541.22,-3
1540.25,-6
1539.29,-8
1538.32,-8
1537.36,-5
1536.39,-1
1535.43,0
1534.47,-0
1533.50,3
1532.54,10
1531.57,15
1530.61,16
1529.64,15
1528.68,17
1527.72,20
1526.75,20
1525.79,18
1524.82,17
1523.86,17
1522.90,15
1521.93,14
1520.97,14
1520.00,10
1519.04,8
1518.07,12
1517.11,20
1516.15,27
1515.18,30
1514.22,30
1513.25,31
1512.29,32
1511.32,34
1510.36,34
1509.40,33
1508.43,36
1507.47,46
1506.50,55
1505.54,61
1504.57,66
1503.61,72
1502.65,79
1501.68,91
1500.72,104
1499.75,116
1498.79,124
1497.83,133
1496.86,148
1495.90,172
1494.93,200
1493.97,223
1493.00,240
1492.04,258
1491.08,281
1490.11,313
1489.15,343
1488.18,363
1487.22,377
1486.25,386
1485.29,396
1484.33,406
1483.36,417
1482.40,424
1481.43,426
1480.47,429
1479.50,439
1478.54,453
1477.58,467
1476.61,477
1475.65,489
1474.68,506
1473.72,526
1472.76,549
1471.79,575
1470.83,608
1469.86,649
1468.90,700
1467.93,758
1466.97,818
1466.01,875
1465.04,929
1464.08,982
1463.11,1038
1462.15,1090
1461.18,1126
1460.22,1148
1459.26,1171
1458.29,1195
1457.33,1226
1456.36,1260
1455.40,1289
1454.43,1309
1453.47,1323
1452.51,1335
1451.54,1349
1450.58,1361
1449.61,1365
1448.65,1359
1447.69,1332
1446.72,1287
1445.76,1234
1444.79,1177
1443.83,1118
1442.86,1056
1441.90,991
1440.94,927
1439.97,857
1439.01,789
1438.04,730
1437.08,681
1436.11,639
1435.15,603
1434.19,569
1433.22,536
1432.26,501
1431.29,463
1430.33,424
1429.36,386
1428.40,352
1427.44,318
1426.47,284
1425.51,257
1424.54,228
1423.58,197
1422.62,170
1421.65,149
1420.69,133
1419.72,120
1418.76,107
1417.79,92
1416.83,77
1415.87,63
1414.90,52
1413.94,44
1412.97,41
1412.01,36
1411.04,29
1410.08,22
1409.12,17
1408.15,13
1407.19,11
1406.22,14
1405.26,18
1404.29,18
1403.33,15
1402.37,13
1401.40,13
1400.44,15
1399.47,20
1398.51,28
1397.55,37
1396.58,43
1395.62,48
1394.65,54
1393.69,61
1392.72,70
1391.76,79
1390.80,85
1389.83,87
1388.87,87
1387.90,84
1386.94,78
1385.97,66
1385.01,50
1384.05,36
1383.08,28
1382.12,28
1381.15,31
1380.19,28
1379.22,20
1378.26,12
1377.30,8
1376.33,7
1375.37,4
1374.40,-2
1373.44,-6
1372.47,-5
1371.51,-0
1370.55,6
1369.58,10
1368.62,7
1367.65,-0
1366.69,-4
1365.73,-4
1364.76,-2
1363.80,2
1362.83,10
1361.87,14
1360.90,17
1359.94,21
1358.98,21
1358.01,17
1357.05,12
1356.08,10
1355.12,8
1354.15,7
1353.19,8
1352.23,14
1351.26,19
1350.30,19
1349.33,19
1348.37,20
1347.40,21
1346.44,23
1345.48,25
1344.51,27
1343.55,31
1342.58,38
1341.62,43
1340.66,45
1339.69,47
1338.73,52
1337.76,58
1336.80,62
1335.83,65
1334.87,67
1333.91,67
1332.94,66
1331.98,70
1331.01,76
1330.05,84
1329.08,93
1328.12,98
1327.16,97
1326.19,93
1325.23,93
1324.26,96
1323.30,99
1322.33,100
1321.37,99
1320.41,93
1319.44,83
1318.48,72
1317.51,61
1316.55,53
1315.59,51
1314.62,51
1313.66,47
1312.69,37
1311.73,28
1310.76,21
1309.80,16
1308.84,14
1307.87,14
1306.91,12
1305.94,10
1304.98,10
1304.01,12
1303.05,13
1302.09,13
1301.12,13
1300.16,10
1299.19,9
1298.23,10
1297.26,12
1296.30,13
1295.34,13
1294.37,13
1293.41,11
1292.44,6
1291.48,1
1290.52,0
1289.55,3
1288.59,6
1287.62,10
1286.66,13
1285.69,14
1284.73,9
1283.77,7
1282.80,8
1281.84,7
1280.87,9
1279.91,15
1278.94,20
1277.98,23
1277.02,27
1276.05,33
1275.09,37
1274.12,42
1273.16,47
1272.19,48
1271.23,46
1270.27,45
1269.30,44
1268.34,44
1267.37,45
1266.41,47
1265.45,47
1264.48,48
1263.52,55
1262.55,62
1261.59,64
1260.62,61
1259.66,59
1258.70,63
1257.73,73
1256.77,85
1255.80,94
1254.84,99
1253.87,102
1252.91,105
1251.95,109
1250.98,117
1250.02,127
1249.05,138
1248.09,150
1247.12,162
1246.16,174
1245.20,184
1244.23,193
1243.27,200
1242.30,205
1241.34,207
1240.38,208
1239.41,209
1238.45,210
1237.48,208
1236.52,207
1235.55,210
1234.59,211
1233.63,209
1232.66,205
1231.70,198
1230.73,187
1229.77,175
1228.80,165
1227.84,159
1226.88,157
1225.91,157
1224.95,159
1223.98,159
1223.02,157
1222.05,156
1221.09,156
1220.13,159
1219.16,161
1218.20,160
1217.23,158
1216.27,159
1215.30,162
1214.34,169
1213.38,176
1212.41,180
1211.45,180
1210.48,184
1209.52,199
1208.56,220
1207.59,238
1206.63,251
1205.66,262
1204.70,272
1203.73,284
1202.77,297
1201.81,309
1200.84,319
1199.88,325
1198.91,324
1197.95,320
1196.98,321
1196.02,328
1195.06,338
1194.09,344
1193.13,344
1192.16,343
1191.20,350
1190.23,360
1189.27,371
1188.31,380
1187.34,390
1186.38,404
1185.41,418
1184.45,420
1183.49,413
1182.52,410
1181.56,408
1180.59,404
1179.63,397
1178.66,387
1177.70,375
1176.74,360
1175.77,342
1174.81,329
1173.84,317
1172.88,301
1171.91,285
1170.95,275
1169.99,272
1169.02,271
1168.06,269
1167.09,269
1166.13,273
1165.16,281
1164.20,289
1163.24,295
1162.27,300
1161.31,306
1160.34,313
1159.38,319
1158.42,319
1157.45,315
1156.49,316
1155.52,317
1154.56,314
1153.59,304
1152.63,291
1151.67,276
1150.70,261
1149.74,246
1148.77,234
1147.81,225
1146.84,218
1145.88,211
1144.92,206
1143.95,200
1142.99,197
1142.02,198
1141.06,202
1140.09,206
1139.13,207
1138.17,204
1137.20,197
1136.24,193
1135.27,198
1134.31,208
1133.35,222
1132.38,237
1131.42,253
1130.45,270
1129.49,289
1128.52,309
1127.56,326
1126.60,343
1125.63,362
1124.67,380
1123.70,389
1122.74,391
1121.77,391
1120.81,389
1119.85,384
1118.88,377
1117.92,369
1116.95,359
1115.99,346
1115.02,335
1114.06,325
1113.10,316
1112.13,306
1111.17,293
1110.20,279
1109.24,264
1108.28,253
1107.31,246
1106.35,240
1105.38,230
1104.42,216
1103.45,198
1102.49,180
1101.53,164
1100.56,155
1099.60,153
1098.63,152
1097.67,149
1096.70,142
1095.74,133
1094.78,121
1093.81,108
1092.85,96
1091.88,88
1090.92,84
1089.95,80
1088.99,76
1088.03,74
1087.06,71
1086.10,66
1085.13,59
1084.17,54
1083.21,49
1082.24,47
1081.28,48
1080.31,49
1079.35,47
1078.38,43
1077.42,41
1076.46,42
1075.49,44
1074.53,46
1073.56,47
1072.60,48
1071.63,51
1070.67,53
1069.71,54
1068.74,57
1067.78,61
1066.81,66
1065.85,71
1064.88,73
1063.92,72
1062.96,73
1061.99,75
1061.03,74
1060.06,64
1059.10,54
1058.13,46
1057.17,40
1056.21,36
1055.24,32
1054.28,26
1053.31,18
1052.35,13
1051.39,9
1050.42,6
1049.46,3
1048.49,-2
1047.53,-6
1046.56,-8
1045.60,-6
1044.64,-2
1043.67,-0
1042.71,-0
1041.74,-1
1040.78,-3
1039.81,-2
1038.85,4
1037.89,10
1036.92,11
1035.96,10
1034.99,6
1034.03,-0
1033.06,-7
1032.10,-9
1031.14,-6
1030.17,-1
1029.21,4
1028.24,8
1027.28,10
1026.32,9
1025.35,10
1024.39,16
1023.42,24
1022.46,23
1021.49,21
1020.53,24
1019.57,30
1018.60,35
1017.64,37
1016.67,40
1015.71,44
1014.74,51
1013.78,58
1012.82,64
1011.85,70
1010.89,77
1009.92,89
1008.96,110
1007.99,145
1007.03,187
1006.07,227
1005.10,266
1004.14,312
1003.17,367
1002.21,427
1001.25,488
1000.28,550
999.32,605
998.35,656
997.39,699
996.42,733
995.46,761
994.50,787
993.53,809
992.57,822
991.60,827
990.64,832
989.67,839
988.71,849
987.75,856
986.78,858
985.82,856
984.85,854
983.89,850
982.92,840
981.96,824
981.00,806
980.03,790
979.07,775
978.10,764
977.14,756
976.18,752
975.21,755
974.25,762
973.28,773
972.32,787
971.35,807
970.39,839
969.43,876
968.46,899
967.50,906
966.53,902
965.57,893
964.60,883
963.64,869
962.68,851
961.71,832
960.75,809
959.78,782
958.82,749
957.85,716
956.89,682
955.93,649
954.96,617
954.00,589
953.03,566
952.07,547
951.11,532
950.14,520
949.18,505
948.21,489
947.25,474
946.28,462
945.32,450
944.36,435
943.39,418
942.43,403
941.46,397
940.50,398
939.53,405
938.57,414
937.61,422
936.64,425
935.68,426
934.71,430
933.75,439
932.78,449
931.82,461
930.86,469
929.89,469
928.93,461
927.96,452
927.00,444
926.04,439
925.07,439
924.11,442
923.14,446
922.18,450
921.21,455
920.25,460
919.29,465
918.32,464
917.36,460
916.39,455
915.43,453
914.46,455
913.50,455
912.54,452
911.57,449
910.61,449
909.64,448
908.68,444
907.71,436
906.75,425
905.79,414
904.82,401
903.86,391
902.89,385
901.93,381
900.96,374
900.00,362
899.04,356
898.07,352
897.11,347
896.14,341
895.18,339
894.22,343
893.25,352
892.29,359
891.32,363
890.36,369
889.39,383
888.43,405
887.47,426
886.50,440
885.54,452
884.57,458
883.61,460
882.64,457
881.68,449
880.72,435
879.75,429
878.79,429
877.82,429
876.86,428
875.89,429
874.93,432
873.97,434
873.00,437
872.04,448
871.07,460
870.11,463
869.15,457
868.18,447
867.22,443
866.25,439
865.29,431
864.32,425
863.36,427
862.40,435
861.43,442
860.47,440
859.50,432
858.54,423
857.57,416
856.61,411
855.65,405
854.68,400
853.72,400
852.75,412
851.79,422
850.82,422
849.86,417
848.90,411
847.93,405
846.97,398
846.00,396
845.04,393
844.08,391
843.11,394
842.15,400
841.18,408
840.22,415
839.25,411
838.29,394
837.33,361
836.36,306
835.40,242
834.43,202
833.47,235
832.50,297
831.54,312
830.58,313
829.61,326
828.65,353
827.68,382
826.72,397
825.75,406
824.79,424
823.83,452
822.86,492
821.90,547
820.93,618
819.97,716
819.01,860
818.04,1051
817.08,1303
816.11,1608
815.15,1933
814.18,2237
813.22,2525
812.26,2638
811.29,2643
810.33,2532
809.36,2304
808.40,2002
807.43,1722
806.47,1444
805.51,1215
804.54,1037
803.58,896
802.61,781
801.65,688
800.68,617
799.72,561
798.76,517
797.79,479
796.83,446
795.86,415
794.90,381
793.94,353
792.97,331
792.01,312
791.04,296
790.08,285
789.11,278
788.15,270
787.19,265
786.22,261
785.26,256
784.29,250
783.33,245
782.36,242
781.40,241
780.44,236
779.47,226
778.51,218
777.54,216
776.58,216
775.61,213
774.65,206
773.69,202
772.72,197
771.76,196
770.79,200
769.83,209
768.87,213
767.90,203
766.94,191
765.97,184
765.01,180
764.04,176
763.08,169
762.12,159
761.15,146
760.19,135
759.22,124
758.26,110
757.29,96
756.33,85
755.37,76
754.40,70
753.44,68
752.47,67
751.51,66
750.54,63
749.58,62
748.62,66
747.65,72
746.69,78
745.72,81
744.76,82
743.79,82
742.83,81
741.87,79
740.90,80
739.94,86
738.97,96
738.01,106
737.05,115
736.08,121
735.12,129
734.15,139
733.19,149
732.22,153
731.26,147
730.30,135
729.33,125
728.37,115
727.40,102
726.44,84
725.47,62
724.51,48
723.55,40
722.58,28
721.62,15
720.65,5
719.69,1
718.72,-0
717.76,0
716.80,4
715.83,8
714.87,11
713.90,10
712.94,5
711.98,-5
711.01,-13
710.05,-13
709.08,-7
708.12,0
707.15,5
706.19,7
705.23,8
704.26,9
703.30,9
702.33,9
701.37,9
700.40,10
699.44,10
698.48,7
697.51,-0
696.55,-7
695.58,-9
694.62,-7
693.65,-5
692.69,-7
691.73,-11
690.76,-13
689.80,-12
688.83,-13
687.87,-12
686.91,22
685.94,40
684.98,18
684.01,-15
683.05,-1
682.08,40
681.12,24
680.16,-2
679.19,-12
678.23,-2
677.26,13
676.30,17
675.33,16
674.37,13
673.41,9
672.44,7
671.48,6
670.51,7
669.55,6
668.58,3
667.62,-0
666.66,-2
665.69,-0
664.73,4
663.76,10
662.80,16
661.84,21
660.87,26
659.91,31
658.94,36
657.98,41
657.01,44
656.05,48
655.09,53
654.12,57
653.16,58
652.19,57
651.23,58
650.26,57
649.30,55
648.34,55
647.37,57
646.41,62
645.44,70
644.48,78
643.51,82
642.55,84
641.59,84
640.62,83
639.66,82
638.69,83
637.73,88
636.77,96
635.80,106
634.84,115
633.87,123
632.91,128
631.94,132
630.98,137
630.02,142
629.05,143
628.09,145
627.12,150
626.16,156
625.19,163
624.23,170
623.27,178
622.30,187
621.34,197
620.37,210
619.41,226
618.44,243
617.48,262
616.52,286
615.55,313
614.59,342
613.62,374
612.66,406
611.70,440
610.73,479
609.77,526
608.80,580
607.84,641
606.87,705
605.91,772
604.95,837
603.98,895
603.02,945
602.05,981
601.09,1002
600.12,1010
599.16,991
598.20,957
597.23,915
596.27,868
595.30,814
594.34,763
593.37,714
592.41,668
591.45,624
590.48,581
589.52,537
588.55,491
587.59,450
586.62,414
585.66,385
584.70,358
583.73,335
582.77,315
581.80,298
580.84,282
579.88,267
578.91,257
577.95,248
576.98,235
576.02,223
575.05,217
574.09,212
573.13,207
572.16,199
571.20,190
570.23,183
569.27,179
568.30,178
567.34,177
566.38,177
565.41,179
564.45,181
563.48,183
562.52,186
561.55,187
560.59,186
559.63,181
558.66,176
557.70,173
556.73,174
555.77,176
554.81,176
553.84,170
552.88,159
551.91,145
550.95,130
549.98,116
549.02,107
548.06,98
547.09,88
546.13,76
545.16,63
544.20,50
543.23,38
542.27,32
541.31,26
540.34,21
539.38,16
538.41,10
537.45,4
536.48,-0
535.52,-3
534.56,-3
533.59,-2
532.63,-0
531.66,2
530.70,2
529.74,1
528.77,0
527.81,0
526.84,2
525.88,4
524.91,3
523.95,-0
522.99,-0
522.02,5
521.06,15
520.09,24
519.13,31
518.16,35
517.20,34
516.24,29
515.27,27
514.31,33
513.34,43
512.38,56
511.41,68
510.45,75
509.49,72
508.52,70
507.56,73
506.59,81
505.63,91
504.67,99
503.70,102
502.74,107
501.77,116
500.81,124
499.84,129
498.88,130
497.92,133
496.95,138
495.99,146
495.02,155
494.06,165
493.09,178
492.13,197
491.17,219
490.20,241
489.24,263
488.27,288
487.31,322
486.34,360
485.38,389
484.42,405
483.45,412
482.49,409
481.52,400
480.56,381
479.60,350
478.63,311
477.67,278
476.70,255
475.74,234
474.77,215
473.81,197
472.85,180
471.88,160
470.92,142
469.95,129
468.99,120
468.02,112
467.06,102
466.10,92
465.13,86
464.17,83
463.20,81
462.24,78
461.27,75
460.31,70
459.35,66
458.38,63
457.42,64
456.45,68
455.49,75
454.53,79
453.56,81
452.60,79
451.63,77
450.67,76
449.70,75
448.74,73
447.78,73
446.81,71
445.85,66
444.88,65
443.92,66
442.95,65
441.99,63
441.03,59
440.06,54
439.10,48
438.13,42
437.17,35
436.20,29
435.24,25
434.28,24
433.31,23
432.35,21
431.38,19
430.42,18
429.45,14
428.49,8
427.53,7
426.56,7
425.60,6
424.63,-0
423.67,-7
422.71,-9
421.74,-6
420.78,-2
419.81,2
418.85,3
417.88,2
416.92,2
415.96,2
414.99,2
414.03,1
413.06,-0
412.10,-0
411.13,1
410.17,3
409.21,7
408.24,11
407.28,16
406.31,21
405.35,27
404.38,34
403.42,43
402.46,52
401.49,58
400.53,63
399.56,70
398.60,79
397.64,86
396.67,89
395.71,92
394.74,99
393.78,111
392.81,123
391.85,133
390.89,141
389.92,144
388.96,145
387.99,149
387.03,158
386.06,170
385.10,181
384.14,189
383.17,195
382.21,199
381.24,205
380.28,211
379.31,218
378.35,226
377.39,235
376.42,247
375.46,262
374.49,277
373.53,289
372.57,296
371.60,305
370.64,316
369.67,326
368.71,335
367.74,345
366.78,350
365.82,354
364.85,357
363.89,362
362.92,366
361.96,363
360.99,351
360.03,333
359.07,313
358.10,295
357.14,280
356.17,268
355.21,258
354.24,246
353.28,232
352.32,211
351.35,186
350.39,162
349.42,142
348.46,128
347.50,118
346.53,110
345.57,100
344.60,91
343.64,84
342.67,80
341.71,75
340.75,65
339.78,55
338.82,47
337.85,43
336.89,41
335.92,35
334.96,27
334.00,20
333.03,14
332.07,9
331.10,5
330.14,1
329.17,0
328.21,2
327.25,6
326.28,10
325.32,12
324.35,12
323.39,10
322.43,6
321.46,3
320.50,-0
319.53,-3
318.57,-6
317.60,-5
316.64,-1
315.68,3
314.71,8
313.75,14
312.78,22
311.82,31
310.85,42
309.89,54
308.93,66
307.96,77
307.00,87
306.03,96
305.07,105
304.10,118
303.14,132
302.18,146
301.21,154
300.25,159
299.28,162
298.32,161
297.36,154
296.39,147
295.43,147
294.46,150
293.50,152
292.53,147
291.57,136
290.61,125
289.64,114
288.68,105
287.71,98
286.75,94
285.78,91
284.82,87
283.86,81
282.89,75
281.93,69
280.96,64
280.00,60
279.03,58
278.07,55
277.11,43
276.14,29
275.18,19
274.21,12
273.25,8
272.28,9
271.32,12
270.36,13
269.39,11
268.43,7
267.46,4
266.50,2
265.54,0
264.57,-3
263.61,-9
262.64,-14
261.68,-14
260.71,-11
259.75,-7
258.79,-3
257.82,-1
256.86,1
255.89,3
254.93,5
253.96,7
253.00,9
252.04,11
251.07,13
250.11,15
249.14,20
248.18,28
247.21,35
246.25,39
245.29,42
244.32,44
243.36,47
242.39,50
241.43,50
240.47,49
239.50,49
238.54,53
237.57,59
236.61,63
235.64,65
234.68,67
233.72,69
232.75,70
231.79,82
230.82,106
229.86,137
228.89,164
227.93,185
226.97,198
226.00,200
225.04,188
224.07,164
223.11,126
222.14,84
221.18,49
220.22,29
219.25,17
218.29,8
217.32,5
216.36,3
215.40,0
214.43,-5
213.47,-11
212.50,-15
211.54,-17
210.57,-15
209.61,-11
208.65,-6
207.68,-3
206.72,-2
205.75,-6
204.79,-13
203.82,-15
202.86,-13
201.90,-9
200.93,-5
199.97,-3
199.00,-1
198.04,0
197.07,0
196.11,0
195.15,1
194.18,0
193.22,-2
192.25,-3
191.29,-4
190.33,-6
189.36,-9
188.40,-12
187.43,-14
186.47,-15
185.50,-12
184.54,-9
183.58,-6
182.61,-4
181.65,-4
180.68,-5
179.72,-7
178.75,-8
177.79,-7
176.83,-3
175.86,-0
174.90,1
173.93,1
172.97,1
172.00,1
171.04,2
170.08,2
169.11,1
168.15,1
167.18,1
166.22,1
165.26,3
164.29,5
163.33,7
162.36,8
161.40,-1
160.43,-0
159.47,1
158.51,5
157.54,9
156.58,9
155.61,6
154.65,2
153.68,-0
152.72,1
151.76,2
150.79,5
149.83,9
148.86,17
147.90,30
146.93,42
145.97,50
145.01,53
144.04,56
143.08,65
142.11,79
141.15,96
140.19,115
139.22,136
138.26,157
137.29,177
136.33,197
135.36,216
134.40,230
133.44,241
132.47,255
131.51,274
130.54,300
129.58,336
128.61,373
127.65,406
126.69,433
125.72,456
124.76,477
123.79,500
122.83,526
121.86,558
120.90,596
119.94,631
118.97,665
118.01,696
117.04,724
116.08,746
115.11,773
114.15,806
113.19,840
112.22,874
111.26,905
110.29,942
109.33,984
108.37,1030
107.40,1077
106.44,1118
105.47,1157
104.51,1195
103.54,1232
102.58,1270
101.62,1309
100.65,1349
99.69,1389
98.72,1430
97.76,1470
96.79,1511
95.83,1555
94.87,1600
93.90,1645
92.94,1689
91.97,1733
91.01,1776
90.04,1819
89.08,1862
88.12,1906
87.15,1945
86.19,1979
85.22,2007
84.26,2035
83.30,2065
82.33,2095
81.37,2121
80.40,2140
79.44,2153
78.47,2174
77.51,2202
76.55,2232
