Created As Omnic File,BIOL 025
Raman Shift / cm-1,INT
3699.66,1
3698.36,1
3697.06,1
3695.77,0
3694.47,1
3693.18,0
3691.88,0
3690.58,0
3689.29,0
3687.99,-0
3686.69,0
3685.40,-0
3684.10,0
3682.80,0
3681.51,0
3680.21,0
3678.91,0
3677.62,0
3676.32,0
3675.02,-0
3673.73,1
3672.43,-0
3671.14,1
3669.84,-0
3668.54,0
3667.25,0
3665.95,-0
3664.65,0
3663.36,1
3662.06,0
3660.76,-0
3659.47,1
3658.17,0
3656.87,1
3655.58,0
3654.28,0
3652.98,0
3651.69,0
3650.39,-0
3649.10,0
3647.80,-0
3646.50,0
3645.21,0
3643.91,0
3642.61,-0
3641.32,0
3640.02,0
3638.72,-0
3637.43,-0
3636.13,-0
3634.83,-0
3633.54,-0
3632.24,0
3630.94,-0
3629.65,-0
3628.35,-1
3627.06,0
3625.76,-0
3624.46,-0
3623.17,0
3621.87,0
3620.57,0
3619.28,-0
3617.98,1
3616.68,1
3615.39,1
3614.09,1
3612.79,-0
3611.50,0
3610.20,0
3608.90,-0
3607.61,0
3606.31,0
3605.02,-0
3603.72,0
3602.42,0
3601.13,0
3599.83,1
3598.53,-0
3597.24,0
3595.94,1
3594.64,0
3593.35,-0
3592.05,0
3590.75,0
3589.46,1
3588.16,0
3586.87,-0
3585.57,0
3584.27,1
3582.98,1
3581.68,2
3580.38,3
3579.09,3
3577.79,4
3576.49,3
3575.20,3
3573.90,2
3572.60,2
3571.31,1
3570.01,1
3568.71,1
3567.42,0
3566.12,0
3564.83,0
3563.53,0
3562.23,-0
3560.94,-0
3559.64,0
3558.34,-0
3557.05,-1
3555.75,0
3554.45,-0
3553.16,1
3551.86,1
3550.56,0
3549.27,1
3547.97,1
3546.67,-0
3545.38,1
3544.08,0
3542.79,1
3541.49,1
3540.19,0
3538.90,1
3537.60,1
3536.30,0
3535.01,0
3533.71,1
3532.41,1
3531.12,0
3529.82,1
3528.52,1
3527.23,0
3525.93,1
3524.63,0
3523.34,1
3522.04,1
3520.75,0
3519.45,1
3518.15,0
3516.86,1
3515.56,1
3514.26,1
3512.97,1
3511.67,1
3510.37,1
3509.08,0
3507.78,0
3506.48,0
3505.19,1
3503.89,0
3502.59,1
3501.30,1
3500.00,2
3498.71,1
3497.41,1
3496.11,0
3494.82,0
3493.52,1
3492.22,1
3490.93,1
3489.63,1
3488.33,0
3487.04,1
3485.74,1
3484.44,0
3483.15,0
3481.85,1
3480.55,0
3479.26,1
3477.96,-1
3476.67,0
3475.37,0
3474.07,0
3472.78,0
3471.48,-0
3470.18,1
3468.89,0
3467.59,1
3466.29,0
3465.00,-0
3463.70,1
3462.40,1
3461.11,1
3459.81,-0
3458.51,1
3457.22,0
3455.92,1
3454.63,0
3453.33,1
3452.03,0
3450.74,0
3449.44,1
3448.14,1
3446.85,-0
3445.55,0
3444.25,1
3442.96,0
3441.66,-0
3440.36,0
3439.07,0
3437.77,0
3436.47,0
3435.18,1
3433.88,-0
3432.59,0
3431.29,0
3429.99,0
3428.70,1
3427.40,-0
3426.10,-0
3424.81,1
3423.51,0
3422.21,-0
3420.92,0
3419.62,0
3418.32,-0
3417.03,1
3415.73,0
3414.43,0
3413.14,0
3411.84,-0
3410.55,-0
3409.25,1
3407.95,-0
3406.66,1
3405.36,0
3404.06,0
3402.77,-0
3401.47,1
3400.17,0
3398.88,1
3397.58,1
3396.28,-0
3394.99,1
3393.69,0
3392.39,0
3391.10,1
3389.80,-0
3388.51,0
3387.21,0
3385.91,1
3384.62,-1
3383.32,0
3382.02,1
3380.73,0
3379.43,1
3378.13,1
3376.84,-0
3375.54,0
3374.24,-0
3372.95,0
3371.65,0
3370.35,1
3369.06,-0
3367.76,0
3366.47,0
3365.17,0
3363.87,0
3362.58,0
3361.28,-0
3359.98,-0
3358.69,0
3357.39,1
3356.09,1
3354.80,1
3353.50,1
3352.20,0
3350.91,-0
3349.61,0
3348.31,-0
3347.02,0
3345.72,0
3344.43,0
3343.13,1
3341.83,1
3340.54,1
3339.24,0
3337.94,1
3336.65,0
3335.35,0
3334.05,0
3332.76,1
3331.46,0
3330.16,1
3328.87,0
3327.57,1
3326.27,1
3324.98,1
3323.68,0
3322.39,1
3321.09,1
3319.79,0
3318.50,1
3317.20,1
3315.90,0
3314.61,0
3313.31,0
3312.01,0
3310.72,0
3309.42,1
3308.12,1
3306.83,1
3305.53,1
3304.24,1
3302.94,0
3301.64,1
3300.35,-0
3299.05,1
3297.75,0
3296.46,1
3295.16,0
3293.86,0
3292.57,1
3291.27,1
3289.97,-0
3288.68,0
3287.38,1
3286.08,0
3284.79,0
3283.49,0
3282.20,1
3280.90,0
3279.60,-0
3278.31,0
3277.01,0
3275.71,0
3274.42,1
3273.12,0
3271.82,0
3270.53,-0
3269.23,0
3267.93,0
3266.64,0
3265.34,0
3264.04,0
3262.75,1
3261.45,1
3260.16,0
3258.86,1
3257.56,-0
3256.27,1
3254.97,0
3253.67,0
3252.38,0
3251.08,0
3249.78,0
3248.49,1
3247.19,0
3245.89,0
3244.60,-0
3243.30,-0
3242.00,0
3240.71,0
3239.41,-0
3238.12,0
3236.82,0
3235.52,1
3234.23,-0
3232.93,0
3231.63,1
3230.34,-0
3229.04,0
3227.74,1
3226.45,1
3225.15,-0
3223.85,0
3222.56,0
3221.26,1
3219.96,-0
3218.67,0
3217.37,0
3216.08,0
3214.78,0
3213.48,-0
3212.19,0
3210.89,-1
3209.59,0
3208.30,-0
3207.00,0
3205.70,-0
3204.41,1
3203.11,0
3201.81,-0
3200.52,-1
3199.22,-0
3197.92,0
3196.63,-0
3195.33,0
3194.04,-0
3192.74,0
3191.44,-0
3190.15,-0
3188.85,-0
3187.55,-0
3186.26,-1
3184.96,1
3183.66,0
3182.37,0
3181.07,0
3179.77,0
3178.48,-0
3177.18,0
3175.88,-0
3174.59,-0
3173.29,-0
3172.00,1
3170.70,-1
3169.40,0
3168.11,-0
3166.81,-0
3165.51,0
3164.22,0
3162.92,-0
3161.62,-0
3160.33,-1
3159.03,-0
3157.73,-1
3156.44,-0
3155.14,-0
3153.84,0
3152.55,0
3151.25,-1
3149.96,1
3148.66,0
3147.36,-0
3146.07,-0
3144.77,0
3143.47,-0
3142.18,0
3140.88,-0
3139.58,-0
3138.29,-1
3136.99,-0
3135.69,1
3134.40,-0
3133.10,-0
3131.80,-0
3130.51,-0
3129.21,0
3127.92,-0
3126.62,0
3125.32,0
3124.03,0
3122.73,1
3121.43,-0
3120.14,-0
3118.84,0
3117.54,-1
3116.25,1
3114.95,-0
3113.65,-0
3112.36,-0
3111.06,0
3109.76,0
3108.47,-0
3107.17,0
3105.88,0
3104.58,1
3103.28,0
3101.99,-1
3100.69,0
3099.39,1
3098.10,-0
3096.80,-0
3095.50,0
3094.21,0
3092.91,0
3091.61,0
3090.32,-1
3089.02,1
3087.72,-0
3086.43,-0
3085.13,0
3083.84,-0
3082.54,0
3081.24,0
3079.95,1
3078.65,0
3077.35,0
3076.06,-1
3074.76,0
3073.46,0
3072.17,-0
3070.87,0
3069.57,1
3068.28,-0
3066.98,0
3065.68,0
3064.39,0
3063.09,0
3061.80,-1
3060.50,-0
3059.20,-0
3057.91,0
3056.61,0
3055.31,-0
3054.02,1
3052.72,0
3051.42,0
3050.13,0
3048.83,1
3047.53,0
3046.24,-0
3044.94,0
3043.65,0
3042.35,-0
3041.05,0
3039.76,-0
3038.46,1
3037.16,0
3035.87,1
3034.57,1
3033.27,0
3031.98,1
3030.68,-0
3029.38,1
3028.09,-0
3026.79,1
3025.49,0
3024.20,-0
3022.90,0
3021.61,0
3020.31,0
3019.01,0
3017.72,1
3016.42,1
3015.12,0
3013.83,0
3012.53,1
3011.23,0
3009.94,0
3008.64,1
3007.34,1
3006.05,0
3004.75,-0
3003.45,0
3002.16,0
3000.86,1
2999.57,0
2998.27,-0
2996.97,0
2995.68,-0
2994.38,1
2993.08,0
2991.79,-0
2990.49,1
2989.19,0
2987.90,1
2986.60,0
2985.30,1
2984.01,1
2982.71,0
2981.41,1
2980.12,0
2978.82,-1
2977.53,-0
2976.23,1
2974.93,1
2973.64,1
2972.34,-0
2971.04,-0
2969.75,1
2968.45,1
2967.15,-0
2965.86,-0
2964.56,-0
2963.26,1
2961.97,0
2960.67,0
2959.37,0
2958.08,-0
2956.78,0
2955.49,1
2954.19,1
2952.89,1
2951.60,-0
2950.30,1
2949.00,0
2947.71,1
2946.41,0
2945.11,1
2943.82,1
2942.52,0
2941.22,0
2939.93,1
2938.63,1
2937.33,1
2936.04,0
2934.74,1
2933.45,0
2932.15,0
2930.85,0
2929.56,1
2928.26,1
2926.96,1
2925.67,1
2924.37,0
2923.07,0
2921.78,0
2920.48,1
2919.18,0
2917.89,-0
2916.59,1
2915.29,1
2914.00,0
2912.70,0
2911.41,0
2910.11,0
2908.81,1
2907.52,-0
2906.22,1
2904.92,1
2903.63,0
2902.33,1
2901.03,0
2899.74,1
2898.44,1
2897.14,1
2895.85,1
2894.55,1
2893.25,-0
2891.96,1
2890.66,0
2889.37,0
2888.07,1
2886.77,0
2885.48,1
2884.18,1
2882.88,0
2881.59,1
2880.29,-0
2878.99,1
2877.70,1
2876.40,1
2875.10,2
2873.81,3
2872.51,4
2871.21,5
2869.92,6
2868.62,5
2867.33,6
2866.03,4
2864.73,3
2863.44,3
2862.14,3
2860.84,3
2859.55,2
2858.25,-0
2856.95,1
2855.66,0
2854.36,1
2853.06,1
2851.77,1
2850.47,1
2849.17,1
2847.88,0
2846.58,1
2845.29,1
2843.99,1
2842.69,1
2841.40,0
2840.10,-0
2838.80,0
2837.51,0
2836.21,2
2834.91,1
2833.62,1
2832.32,0
2831.02,1
2829.73,1
2828.43,1
2827.13,1
2825.84,1
2824.54,0
2823.25,1
2821.95,1
2820.65,1
2819.36,1
2818.06,1
2816.76,1
2815.47,1
2814.17,1
2812.87,-0
2811.58,2
2810.28,1
2808.98,1
2807.69,1
2806.39,1
2805.09,1
2803.80,0
2802.50,2
2801.21,1
2799.91,2
2798.61,0
2797.32,0
2796.02,1
2794.72,1
2793.43,0
2792.13,2
2790.83,0
2789.54,1
2788.24,1
2786.94,-0
2785.65,1
2784.35,1
2783.06,0
2781.76,1
2780.46,2
2779.17,0
2777.87,2
2776.57,0
2775.28,1
2773.98,1
2772.68,1
2771.39,1
2770.09,1
2768.79,1
2767.50,1
2766.20,1
2764.90,1
2763.61,0
2762.31,1
2761.02,1
2759.72,-0
2758.42,1
2757.13,1
2755.83,1
2754.53,1
2753.24,1
2751.94,1
2750.64,0
2749.35,1
2748.05,1
2746.75,0
2745.46,1
2744.16,1
2742.86,0
2741.57,2
2740.27,1
2738.98,1
2737.68,1
2736.38,1
2735.09,1
2733.79,1
2732.49,1
2731.20,1
2729.90,1
2728.60,0
2727.31,1
2726.01,2
2724.71,0
2723.42,1
2722.12,0
2720.82,1
2719.53,1
2718.23,1
2716.94,1
2715.64,-0
2714.34,1
2713.05,1
2711.75,1
2710.45,1
2709.16,-0
2707.86,1
2706.56,-0
2705.27,1
2703.97,0
2702.67,1
2701.38,1
2700.08,1
2698.78,0
2697.49,-0
2696.19,1
2694.90,0
2693.60,1
2692.30,0
2691.01,1
2689.71,1
2688.41,1
2687.12,-0
2685.82,2
2684.52,1
2683.23,1
2681.93,2
2680.63,2
2679.34,1
2678.04,0
2676.74,1
2675.45,0
2674.15,1
2672.86,1
2671.56,0
2670.26,0
2668.97,0
2667.67,0
2666.37,0
2665.08,1
2663.78,-1
2662.48,-0
2661.19,2
2659.89,-0
2658.59,-0
2657.30,-0
2656.00,-0
2654.70,1
2653.41,1
2652.11,-0
2650.82,-0
2649.52,0
2648.22,-0
2646.93,1
2645.63,1
2644.33,0
2643.04,-0
2641.74,1
2640.44,0
2639.15,1
2637.85,1
2636.55,0
2635.26,0
2633.96,1
2632.66,-0
2631.37,3
2630.07,1
2628.78,-1
2627.48,0
2626.18,-0
2624.89,1
2623.59,1
2622.29,0
2621.00,-0
2619.70,2
2618.40,1
2617.11,-1
2615.81,2
2614.51,1
2613.22,0
2611.92,1
2610.62,0
2609.33,0
2608.03,-1
2606.74,-1
2605.44,1
2604.14,1
2602.85,1
2601.55,-0
2600.25,1
2598.96,1
2597.66,0
2596.36,0
2595.07,0
2593.77,0
2592.47,2
2591.18,0
2589.88,1
2588.58,0
2587.29,2
2585.99,1
2584.70,-0
2583.40,0
2582.10,0
2580.81,1
2579.51,0
2578.21,1
2576.92,1
2575.62,0
2574.32,2
2573.03,1
2571.73,2
2570.43,-1
2569.14,0
2567.84,1
2566.54,-1
2565.25,0
2563.95,1
2562.66,2
2561.36,1
2560.06,2
2558.77,4
2557.47,2
2556.17,1
2554.88,3
2553.58,1
2552.28,1
2550.99,1
2549.69,1
2548.39,-0
2547.10,0
2545.80,2
2544.50,1
2543.21,1
2541.91,2
2540.62,1
2539.32,1
2538.02,2
2536.73,2
2535.43,2
2534.13,2
2532.84,2
2531.54,2
2530.24,1
2528.95,-0
2527.65,2
2526.35,0
2525.06,1
2523.76,1
2522.46,0
2521.17,1
2519.87,0
2518.58,-0
2517.28,1
2515.98,1
2514.69,1
2513.39,0
2512.09,1
2510.80,2
2509.50,1
2508.20,1
2506.91,1
2505.61,1
2504.31,1
2503.02,2
2501.72,1
2500.43,1
2499.13,2
2497.83,2
2496.54,2
2495.24,1
2493.94,1
2492.65,1
2491.35,2
2490.05,1
2488.76,1
2487.46,0
2486.16,2
2484.87,-0
2483.57,1
2482.27,0
2480.98,0
2479.68,-0
2478.39,2
2477.09,1
2475.79,-1
2474.50,0
2473.20,1
2471.90,1
2470.61,1
2469.31,0
2468.01,2
2466.72,1
2465.42,0
2464.12,1
2462.83,0
2461.53,0
2460.23,-0
2458.94,-0
2457.64,0
2456.35,0
2455.05,0
2453.75,1
2452.46,1
2451.16,1
2449.86,0
2448.57,1
2447.27,1
2445.97,1
2444.68,2
2443.38,3
2442.08,2
2440.79,2
2439.49,1
2438.19,1
2436.90,1
2435.60,1
2434.31,2
2433.01,1
2431.71,2
2430.42,1
2429.12,2
2427.82,2
2426.53,2
2425.23,2
2423.93,1
2422.64,1
2421.34,1
2420.04,1
2418.75,2
2417.45,1
2416.15,1
2414.86,3
2413.56,2
2412.27,1
2410.97,1
2409.67,1
2408.38,1
2407.08,0
2405.78,1
2404.49,0
2403.19,0
2401.89,1
2400.60,1
2399.30,2
2398.00,0
2396.71,0
2395.41,2
2394.11,1
2392.82,2
2391.52,-0
2390.23,1
2388.93,1
2387.63,-1
2386.34,-0
2385.04,-1
2383.74,-1
2382.45,-1
2381.15,0
2379.85,-1
2378.56,-0
2377.26,-0
2375.96,1
2374.67,-2
2373.37,-2
2372.07,1
2370.78,-1
2369.48,-1
2368.19,-1
2366.89,0
2365.59,-0
2364.30,-1
2363.00,-3
2361.70,-2
2360.41,-1
2359.11,-0
2357.81,-1
2356.52,-2
2355.22,-2
2353.92,-1
2352.63,-2
2351.33,-3
2350.03,-1
2348.74,-1
2347.44,1
2346.15,-2
2344.85,-2
2343.55,-2
2342.26,-3
2340.96,-3
2339.66,-2
2338.37,-1
2337.07,-1
2335.77,-4
2334.48,-2
2333.18,-1
2331.88,-0
2330.59,1
2329.29,-1
2327.99,-1
2326.70,-2
2325.40,-2
2324.11,1
2322.81,-0
2321.51,-2
2320.22,-1
2318.92,-2
2317.62,-2
2316.33,-1
2315.03,-0
2313.73,-2
2312.44,-2
2311.14,-3
2309.84,-3
2308.55,-3
2307.25,-2
2305.95,-3
2304.66,-3
2303.36,-1
2302.07,-1
2300.77,-2
2299.47,0
2298.18,1
2296.88,1
2295.58,0
2294.29,1
2292.99,0
2291.69,1
2290.40,1
2289.10,-2
2287.80,-1
2286.51,-1
2285.21,-1
2283.91,-3
2282.62,-4
2281.32,-1
2280.03,-3
2278.73,-2
2277.43,-1
2276.14,-2
2274.84,-2
2273.54,-2
2272.25,-0
2270.95,-2
2269.65,-3
2268.36,-2
2267.06,-5
2265.76,-1
2264.47,-1
2263.17,-1
2261.87,-3
2260.58,-2
2259.28,-2
2257.99,-1
2256.69,-0
2255.39,-1
2254.10,-1
2252.80,-3
2251.50,-2
2250.21,1
2248.91,-1
2247.61,-2
2246.32,-2
2245.02,0
2243.72,1
2242.43,-2
2241.13,-2
2239.84,-2
2238.54,-3
2237.24,-2
2235.95,-3
2234.65,-3
2233.35,-3
2232.06,-2
2230.76,-0
2229.46,-2
2228.17,-2
2226.87,-2
2225.57,-2
2224.28,-1
2222.98,0
2221.68,-1
2220.39,3
2219.09,1
2217.80,2
2216.50,3
2215.20,2
2213.91,-1
2212.61,1
2211.31,-0
2210.02,-2
2208.72,-2
2207.42,-4
2206.13,-3
2204.83,-3
2203.53,-3
2202.24,-2
2200.94,-0
2199.64,2
2198.35,2
2197.05,1
2195.76,1
2194.46,1
2193.16,-1
2191.87,-1
2190.57,-0
2189.27,-2
2187.98,-2
2186.68,-2
2185.38,-2
2184.09,0
2182.79,-0
2181.49,-1
2180.20,-0
2178.90,-0
2177.60,1
2176.31,-2
2175.01,-1
2173.72,-0
2172.42,-0
2171.12,-2
2169.83,-1
2168.53,1
2167.23,-2
2165.94,-1
2164.64,-3
2163.34,-3
2162.05,-2
2160.75,-6
2159.45,-0
2158.16,-2
2156.86,-1
2155.56,-0
2154.27,3
2152.97,0
2151.68,-2
2150.38,-0
2149.08,-2
2147.79,-4
2146.49,-4
2145.19,-2
2143.90,-4
2142.60,-3
2141.30,-2
2140.01,-1
2138.71,-1
2137.41,-1
2136.12,1
2134.82,1
2133.52,2
2132.23,1
2130.93,1
2129.64,0
2128.34,-4
2127.04,-2
2125.75,-0
2124.45,-1
2123.15,-1
2121.86,1
2120.56,3
2119.26,2
2117.97,2
2116.67,2
2115.37,1
2114.08,3
2112.78,1
2111.48,0
2110.19,-0
2108.89,1
2107.60,2
2106.30,2
2105.00,1
2103.71,1
2102.41,1
2101.11,0
2099.82,2
2098.52,3
2097.22,3
2095.93,1
2094.63,2
2093.33,2
2092.04,4
2090.74,4
2089.44,3
2088.15,4
2086.85,5
2085.56,3
2084.26,3
2082.96,3
2081.67,0
2080.37,2
2079.07,-2
2077.78,-1
2076.48,-2
2075.18,-3
2073.89,-0
2072.59,-4
2071.29,-2
2070.00,-2
2068.70,-3
2067.40,-2
2066.11,-2
2064.81,-4
2063.52,-4
2062.22,-4
2060.92,-4
2059.63,-1
2058.33,-0
2057.03,-1
2055.74,-2
2054.44,-3
2053.14,-2
2051.85,-2
2050.55,-1
2049.25,-2
2047.96,-0
2046.66,-4
2045.36,-2
2044.07,-5
2042.77,-3
2041.48,0
2040.18,2
2038.88,2
2037.59,-1
2036.29,-3
2034.99,-2
2033.70,-2
2032.40,-3
2031.10,-4
2029.81,-3
2028.51,-4
2027.21,-5
2025.92,-5
2024.62,-2
2023.32,-3
2022.03,-2
2020.73,-4
2019.44,-1
2018.14,-3
2016.84,-2
2015.55,-4
2014.25,-2
2012.95,-2
2011.66,-2
2010.36,-2
2009.06,-5
2007.77,-4
2006.47,-4
2005.17,-3
2003.88,-2
2002.58,-4
2001.28,-3
1999.99,-3
1998.69,-4
1997.40,-4
1996.10,-3
1994.80,-1
1993.51,-1
1992.21,-3
1990.91,-5
1989.62,-3
1988.32,-3
1987.02,-4
1985.73,-3
1984.43,-2
1983.13,-5
1981.84,-3
1980.54,-6
1979.24,-5
1977.95,-4
1976.65,-6
1975.36,-2
1974.06,-2
1972.76,-3
1971.47,-1
1970.17,-5
1968.87,-0
1967.58,-2
1966.28,-4
1964.98,-3
1963.69,-2
1962.39,-3
1961.09,-2
1959.80,-3
1958.50,-3
1957.21,-2
1955.91,-1
1954.61,-1
1953.32,-0
1952.02,2
1950.72,0
1949.43,-1
1948.13,0
1946.83,1
1945.54,0
1944.24,2
1942.94,3
1941.65,2
1940.35,3
1939.05,2
1937.76,1
1936.46,1
1935.17,1
1933.87,-1
1932.57,2
1931.28,0
1929.98,2
1928.68,4
1927.39,3
1926.09,0
1924.79,2
1923.50,-0
1922.20,0
1920.90,1
1919.61,0
1918.31,-1
1917.01,-2
1915.72,-2
1914.42,-1
1913.13,-1
1911.83,-1
1910.53,-1
1909.24,-4
1907.94,-2
1906.64,1
1905.35,-1
1904.05,-3
1902.75,-1
1901.46,-0
1900.16,-1
1898.86,2
1897.57,0
1896.27,1
1894.97,1
1893.68,2
1892.38,1
1891.09,0
1889.79,0
1888.49,-1
1887.20,1
1885.90,-2
1884.60,0
1883.31,1
1882.01,0
1880.71,2
1879.42,1
1878.12,1
1876.82,1
1875.53,3
1874.23,5
1872.93,2
1871.64,4
1870.34,6
1869.05,2
1867.75,3
1866.45,3
1865.16,7
1863.86,7
1862.56,5
1861.27,3
1859.97,4
1858.67,4
1857.38,2
1856.08,5
1854.78,7
1853.49,7
1852.19,9
1850.89,7
1849.60,6
1848.30,7
1847.01,4
1845.71,5
1844.41,4
1843.12,3
1841.82,0
1840.52,2
1839.23,3
1837.93,1
1836.63,1
1835.34,2
1834.04,3
1832.74,2
1831.45,2
1830.15,5
1828.85,4
1827.56,2
1826.26,4
1824.97,5
1823.67,2
1822.37,4
1821.08,4
1819.78,4
1818.48,2
1817.19,2
1815.89,-0
1814.59,1
1813.30,0
1812.00,-3
1810.70,-0
1809.41,1
1808.11,-0
1806.81,0
1805.52,0
1804.22,-1
1802.93,2
1801.63,4
1800.33,3
1799.04,1
1797.74,-1
1796.44,-0
1795.15,0
1793.85,3
1792.55,1
1791.26,-1
1789.96,-2
1788.66,-0
1787.37,-1
1786.07,-1
1784.77,-2
1783.48,-3
1782.18,-2
1780.89,0
1779.59,2
1778.29,5
1777.00,2
1775.70,1
1774.40,2
1773.11,4
1771.81,2
1770.51,-1
1769.22,1
1767.92,1
1766.62,-1
1765.33,0
1764.03,-0
1762.73,-4
1761.44,-1
1760.14,1
1758.85,-1
1757.55,-2
1756.25,-2
1754.96,-3
1753.66,-3
1752.36,-6
1751.07,-7
1749.77,-5
1748.47,-4
1747.18,-4
1745.88,-3
1744.58,-4
1743.29,-4
1741.99,0
1740.69,-0
1739.40,-2
1738.10,-5
1736.81,-4
1735.51,-6
1734.21,-6
1732.92,-7
1731.62,-9
1730.32,-6
1729.03,-4
1727.73,-3
1726.43,-3
1725.14,-4
1723.84,2
1722.54,-4
1721.25,1
1719.95,3
1718.65,-1
1717.36,1
1716.06,2
1714.77,2
1713.47,2
1712.17,1
1710.88,0
1709.58,3
1708.28,7
1706.99,6
1705.69,8
1704.39,5
1703.10,4
1701.80,8
1700.50,5
1699.21,4
1697.91,5
1696.62,5
1695.32,5
1694.02,8
1692.73,5
1691.43,2
1690.13,3
1688.84,4
1687.54,5
1686.24,2
1684.95,4
1683.65,4
1682.35,2
1681.06,1
1679.76,-0
1678.46,-1
1677.17,-2
1675.87,-5
1674.58,-2
1673.28,-2
1671.98,0
1670.69,-1
1669.39,0
1668.09,-0
1666.80,0
1665.50,-2
1664.20,-0
1662.91,0
1661.61,-3
1660.31,-2
1659.02,-3
1657.72,-2
1656.42,0
1655.13,-2
1653.83,-3
1652.54,-3
1651.24,-1
1649.94,0
1648.65,0
1647.35,1
1646.05,0
1644.76,-1
1643.46,-1
1642.16,2
1640.87,2
1639.57,-1
1638.27,-1
1636.98,-1
1635.68,0
1634.38,-0
1633.09,-4
1631.79,-5
1630.50,-1
1629.20,-2
1627.90,-2
1626.61,1
1625.31,-5
1624.01,-1
1622.72,-1
1621.42,0
1620.12,-0
1618.83,-1
1617.53,0
1616.23,-1
1614.94,-4
1613.64,-4
1612.34,-4
1611.05,-4
1609.75,-3
1608.46,-5
1607.16,-5
1605.86,-2
1604.57,0
1603.27,-1
1601.97,-0
1600.68,1
1599.38,-1
1598.08,1
1596.79,1
1595.49,2
1594.19,2
1592.90,2
1591.60,5
1590.30,5
1589.01,3
1587.71,7
1586.42,6
1585.12,2
1583.82,4
1582.53,3
1581.23,3
1579.93,3
1578.64,1
1577.34,2
1576.04,1
1574.75,4
1573.45,4
1572.15,5
1570.86,1
1569.56,0
1568.26,1
1566.97,1
1565.67,-0
1564.38,-0
1563.08,1
1561.78,3
1560.49,7
1559.19,6
1557.89,4
1556.60,4
1555.30,1
1554.00,-1
1552.71,-1
1551.41,-2
1550.11,2
1548.82,1
1547.52,3
1546.22,-1
1544.93,0
1543.63,-1
1542.34,-2
1541.04,-1
1539.74,1
1538.45,4
1537.15,-1
1535.85,-4
1534.56,0
1533.26,-1
1531.96,-1
1530.67,0
1529.37,0
1528.07,-2
1526.78,-1
1525.48,-6
1524.18,-2
1522.89,1
1521.59,-2
1520.30,-2
1519.00,0
1517.70,1
1516.41,-2
1515.11,-4
1513.81,2
1512.52,3
1511.22,-1
1509.92,-0
1508.63,0
1507.33,2
1506.03,3
1504.74,2
1503.44,3
1502.14,-0
1500.85,-2
1499.55,-1
1498.26,-2
1496.96,-4
1495.66,-2
1494.37,-1
1493.07,-4
1491.77,-3
1490.48,0
1489.18,-4
1487.88,-2
1486.59,2
1485.29,1
1483.99,-2
1482.70,-3
1481.40,0
1480.10,-3
1478.81,2
1477.51,-1
1476.22,-6
1474.92,-8
1473.62,-4
1472.33,-0
1471.03,-3
1469.73,-4
1468.44,-8
1467.14,-4
1465.84,-2
1464.55,-3
1463.25,-6
1461.95,-7
1460.66,-6
1459.36,-7
1458.06,-4
1456.77,-6
1455.47,-5
1454.18,-5
1452.88,-5
1451.58,-5
1450.29,-4
1448.99,-4
1447.69,-5
1446.40,-6
1445.10,-5
1443.80,-5
1442.51,-7
1441.21,-6
1439.91,-1
1438.62,-2
1437.32,-4
1436.02,1
1434.73,-1
1433.43,-2
1432.14,0
1430.84,3
1429.54,4
1428.25,-0
1426.95,2
1425.65,4
1424.36,2
1423.06,1
1421.76,-2
1420.47,-3
1419.17,-1
1417.87,-3
1416.58,-0
1415.28,-0
1413.99,-2
1412.69,1
1411.39,-2
1410.10,-5
1408.80,-2
1407.50,-2
1406.21,-1
1404.91,1
1403.61,-2
1402.32,-3
1401.02,-1
1399.72,1
1398.43,1
1397.13,2
1395.83,-2
1394.54,0
1393.24,6
1391.95,3
1390.65,2
1389.35,4
1388.06,-1
1386.76,1
1385.46,5
1384.17,-1
1382.87,1
1381.57,4
1380.28,2
1378.98,1
1377.68,1
1376.39,-1
1375.09,-1
1373.79,1
1372.50,2
1371.20,-0
1369.91,-3
1368.61,-1
1367.31,-1
1366.02,-0
1364.72,1
1363.42,-0
1362.13,-1
1360.83,-1
1359.53,0
1358.24,-4
1356.94,-3
1355.64,1
1354.35,-1
1353.05,0
1351.75,1
1350.46,-3
1349.16,4
1347.87,-1
1346.57,0
1345.27,0
1343.98,-1
1342.68,2
1341.38,5
1340.09,-3
1338.79,2
1337.49,2
1336.20,-3
1334.90,-2
1333.60,-1
1332.31,-4
1331.01,-0
1329.71,-2
1328.42,-3
1327.12,-2
1325.83,-3
1324.53,-4
1323.23,-2
1321.94,-1
1320.64,-1
1319.34,0
1318.05,-2
1316.75,0
1315.45,1
1314.16,-3
1312.86,-1
1311.56,2
1310.27,0
1308.97,1
1307.67,1
1306.38,1
1305.08,1
1303.79,-2
1302.49,-3
1301.19,-2
1299.90,-4
1298.60,-1
1297.30,3
1296.01,1
1294.71,2
1293.41,-3
1292.12,-4
1290.82,-3
1289.52,-3
1288.23,-3
1286.93,0
1285.63,1
1284.34,4
1283.04,-1
1281.75,-1
1280.45,2
1279.15,0
1277.86,1
1276.56,2
1275.26,5
1273.97,0
1272.67,-2
1271.37,0
1270.08,-1
1268.78,-2
1267.48,4
1266.19,2
1264.89,-2
1263.59,-2
1262.30,3
1261.00,4
1259.71,5
1258.41,-0
1257.11,-0
1255.82,0
1254.52,-1
1253.22,-2
1251.93,-2
1250.63,0
1249.33,1
1248.04,-1
1246.74,-2
1245.44,-2
1244.15,-3
1242.85,-0
1241.55,-2
1240.26,-4
1238.96,-3
1237.67,0
1236.37,0
1235.07,-2
1233.78,-3
1232.48,-5
1231.18,-1
1229.89,0
1228.59,-4
1227.29,-1
1226.00,-2
1224.70,-3
1223.40,-1
1222.11,2
1220.81,2
1219.51,1
1218.22,1
1216.92,-2
1215.63,3
1214.33,5
1213.03,1
1211.74,2
1210.44,1
1209.14,6
1207.85,6
1206.55,3
1205.25,3
1203.96,5
1202.66,4
1201.36,4
1200.07,3
1198.77,2
1197.47,1
1196.18,0
1194.88,0
1193.59,0
1192.29,-3
1190.99,-5
1189.70,-6
1188.40,-3
1187.10,4
1185.81,0
1184.51,-2
1183.21,-3
1181.92,-3
1180.62,-2
1179.32,-0
1178.03,1
1176.73,2
1175.43,3
1174.14,2
1172.84,0
1171.55,4
1170.25,4
1168.95,1
1167.66,3
1166.36,6
1165.06,5
1163.77,3
1162.47,9
1161.17,6
1159.88,2
1158.58,3
1157.28,8
1155.99,6
1154.69,6
1153.40,4
1152.10,6
1150.80,8
1149.51,5
1148.21,7
1146.91,4
1145.62,3
1144.32,5
1143.02,5
1141.73,1
1140.43,0
1139.13,2
1137.84,4
1136.54,2
1135.24,-2
1133.95,2
1132.65,2
1131.36,0
1130.06,-1
1128.76,-0
1127.47,1
1126.17,2
1124.87,2
1123.58,1
1122.28,-4
1120.98,-8
1119.69,-6
1118.39,-1
1117.09,-4
1115.80,-4
1114.50,-4
1113.20,-3
1111.91,2
1110.61,2
1109.32,3
1108.02,6
1106.72,6
1105.43,3
1104.13,4
1102.83,7
1101.54,8
1100.24,8
1098.94,9
1097.65,14
1096.35,25
1095.05,32
1093.76,44
1092.46,65
1091.16,98
1089.87,146
1088.57,208
1087.28,296
1085.98,404
1084.68,532
1083.39,677
1082.09,829
1080.79,957
1079.50,1056
1078.20,1104
1076.90,1089
1075.61,1012
1074.31,884
1073.01,730
1071.72,588
1070.42,464
1069.12,356
1067.83,274
1066.53,208
1065.24,159
1063.94,122
1062.64,95
1061.35,77
1060.05,62
1058.75,53
1057.46,43
1056.16,34
1054.86,29
1053.57,21
1052.27,20
1050.97,19
1049.68,16
1048.38,13
1047.08,9
1045.79,9
1044.49,4
1043.20,2
1041.90,5
1040.60,8
1039.31,7
1038.01,4
1036.71,1
1035.42,2
1034.12,7
1032.82,3
1031.53,2
1030.23,1
1028.93,1
1027.64,0
1026.34,-2
1025.04,2
1023.75,1
1022.45,-0
1021.16,0
1019.86,-1
1018.56,4
1017.27,4
1015.97,7
1014.67,11
1013.38,12
1012.08,11
1010.78,13
1009.49,11
1008.19,12
1006.89,16
1005.60,14
1004.30,15
1003.00,16
1001.71,16
1000.41,15
999.12,14
997.82,13
996.52,18
995.23,17
993.93,12
992.63,12
991.34,11
990.04,10
988.74,13
987.45,16
986.15,10
984.85,11
983.56,13
982.26,15
980.96,13
979.67,9
978.37,8
977.08,12
975.78,10
974.48,7
973.19,7
971.89,8
970.59,5
969.30,5
968.00,7
966.70,5
965.41,3
964.11,2
962.81,2
961.52,3
960.22,5
958.92,-3
957.63,0
956.33,2
955.04,2
953.74,2
952.44,-0
951.15,-1
949.85,2
948.55,3
947.26,1
945.96,6
944.66,3
943.37,5
942.07,5
940.77,2
939.48,1
938.18,1
936.88,4
935.59,5
934.29,1
933.00,1
931.70,5
930.40,4
929.11,2
927.81,5
926.51,7
925.22,1
923.92,1
922.62,7
921.33,9
920.03,5
918.73,6
917.44,7
916.14,5
914.84,4
913.55,7
912.25,6
910.96,3
909.66,3
908.36,9
907.07,7
905.77,4
904.47,5
903.18,7
901.88,6
900.58,7
899.29,4
897.99,2
896.69,2
895.40,1
894.10,-2
892.80,0
891.51,3
890.21,2
888.92,1
887.62,1
886.32,-1
885.03,-3
883.73,-3
882.43,0
881.14,-2
879.84,-2
878.54,0
877.25,0
875.95,-4
874.65,-1
873.36,1
872.06,-2
870.77,-1
869.47,1
868.17,3
866.88,2
865.58,-1
864.28,-3
862.99,5
861.69,5
860.39,1
859.10,3
857.80,-3
856.50,-3
855.21,1
853.91,3
852.61,5
851.32,3
850.02,-1
848.73,-3
847.43,-3
846.13,-2
844.84,-4
843.54,-1
842.24,4
840.95,3
839.65,0
838.35,-1
837.06,-0
835.76,0
834.46,-5
833.17,-2
831.87,-2
830.57,-3
829.28,-3
827.98,1
826.69,1
825.39,1
824.09,2
822.80,0
821.50,-6
820.20,-3
818.91,-0
817.61,-3
816.31,-3
815.02,-5
813.72,-6
812.42,-6
811.13,-5
809.83,-2
808.53,-2
807.24,-4
805.94,-5
804.65,-4
803.35,-3
802.05,-7
800.76,-9
799.46,-5
798.16,-6
796.87,-5
795.57,-6
794.27,-8
792.98,-5
791.68,-1
790.38,0
789.09,-0
787.79,-0
786.49,3
785.20,-1
783.90,-4
782.61,-2
781.31,4
780.01,-2
778.72,-2
777.42,2
776.12,0
774.83,-1
773.53,-3
772.23,-4
770.94,-1
769.64,2
768.34,-2
767.05,-1
765.75,2
764.45,-2
763.16,0
761.86,-1
760.57,-0
759.27,4
757.97,1
756.68,-1
755.38,2
754.08,7
752.79,4
751.49,-3
750.19,-2
748.90,2
747.60,4
746.30,0
745.01,0
743.71,2
742.41,4
741.12,-0
739.82,3
738.53,5
737.23,3
735.93,-2
734.64,-0
733.34,-0
732.04,1
730.75,4
729.45,2
728.15,2
726.86,3
725.56,4
724.26,8
722.97,5
721.67,6
720.37,12
719.08,16
717.78,19
716.49,26
715.19,36
713.89,45
712.60,53
711.30,64
710.00,76
708.71,88
707.41,103
706.11,113
704.82,123
703.52,129
702.22,123
700.93,120
699.63,109
698.33,95
697.04,83
695.74,68
694.45,57
693.15,49
691.85,41
690.56,28
689.26,23
687.96,23
686.67,22
685.37,17
684.07,15
682.78,14
681.48,13
680.18,11
678.89,10
677.59,7
676.29,4
675.00,5
673.70,6
672.41,9
671.11,8
669.81,-0
668.52,3
667.22,2
665.92,1
664.63,2
663.33,2
662.03,-1
660.74,-3
659.44,-2
658.14,-1
656.85,7
655.55,8
654.25,0
652.96,-3
651.66,-1
650.37,-1
649.07,-2
647.77,0
646.48,-4
645.18,-4
643.88,-1
642.59,0
641.29,-1
639.99,0
638.70,2
637.40,-0
636.10,-0
634.81,1
633.51,3
632.21,4
630.92,-2
629.62,-1
628.33,1
627.03,0
625.73,-1
624.44,-2
623.14,-3
621.84,-5
620.55,-4
619.25,-4
617.95,-2
616.66,0
615.36,-3
614.06,0
612.77,-0
611.47,-6
610.18,-11
608.88,-5
607.58,-2
606.29,-5
604.99,-11
603.69,-7
602.40,-5
601.10,-7
599.80,-3
598.51,-2
597.21,-1
595.91,0
594.62,1
593.32,-2
592.02,-1
590.73,4
589.43,3
588.14,5
586.84,7
585.54,6
584.25,0
582.95,-0
581.65,0
580.36,1
579.06,-1
577.76,2
576.47,1
575.17,-3
573.87,-4
572.58,-1
571.28,2
569.98,2
568.69,-3
567.39,3
566.10,8
564.80,8
563.50,3
562.21,5
560.91,6
559.61,6
558.32,9
557.02,10
555.72,7
554.43,1
553.13,5
551.83,6
550.54,5
549.24,3
547.94,4
546.65,1
545.35,0
544.06,3
542.76,4
541.46,3
540.17,3
538.87,4
537.57,5
536.28,2
534.98,-1
533.68,-3
532.39,-5
531.09,-2
529.79,3
528.50,5
527.20,6
525.90,2
524.61,-1
523.31,0
522.02,4
520.72,5
519.42,5
518.13,4
516.83,8
515.53,11
514.24,11
512.94,5
511.64,2
510.35,1
509.05,1
507.75,0
506.46,1
505.16,4
503.86,8
502.57,9
501.27,9
499.98,10
498.68,12
497.38,7
496.09,8
494.79,10
493.49,12
492.20,17
490.90,12
489.60,8
488.31,16
487.01,18
485.71,18
484.42,17
483.12,16
481.82,21
480.53,21
479.23,18
477.94,13
476.64,16
475.34,12
474.05,2
472.75,2
471.45,3
470.16,2
468.86,1
467.56,3
466.27,6
464.97,8
463.67,8
462.38,6
461.08,2
459.78,-3
458.49,-7
457.19,-5
455.90,-1
454.60,1
453.30,-0
452.01,-5
450.71,-5
449.41,1
448.12,-3
446.82,0
445.52,6
444.23,11
442.93,9
441.63,7
440.34,5
439.04,3
437.74,-0
436.45,-0
435.15,0
433.86,-5
432.56,-9
431.26,-6
429.97,4
428.67,7
427.37,-0
426.08,-9
424.78,-8
423.48,-6
422.19,3
420.89,12
419.59,10
418.30,14
417.00,20
415.70,28
414.41,32
413.11,33
411.82,36
410.52,40
409.22,43
407.93,42
406.63,39
405.33,35
404.04,34
402.74,33
401.44,29
400.15,20
398.85,15
397.55,9
396.26,4
394.96,10
393.66,10
392.37,7
391.07,10
389.78,9
388.48,5
387.18,0
385.89,0
384.59,-1
383.29,-3
382.00,-2
380.70,1
379.40,6
378.11,8
376.81,2
375.51,7
374.22,10
372.92,6
371.62,2
370.33,2
369.03,2
367.74,-3
366.44,-3
365.14,-4
363.85,-7
362.55,-6
361.25,-3
359.96,-1
358.66,-4
357.36,-10
356.07,-8
354.77,-2
353.47,0
352.18,-5
350.88,-6
349.59,-2
348.29,2
346.99,0
345.70,-2
344.40,-0
343.10,-2
341.81,-6
340.51,-8
339.21,-2
337.92,-2
336.62,-3
335.32,-1
334.03,6
332.73,10
331.43,10
330.14,9
328.84,8
327.55,9
326.25,10
324.95,6
323.66,4
322.36,5
321.06,10
319.77,10
318.47,13
317.17,18
315.88,17
314.58,18
313.28,21
311.99,25
310.69,27
309.39,31
308.10,37
306.80,39
305.51,41
304.21,44
302.91,47
301.62,52
300.32,60
299.02,69
297.73,74
296.43,80
295.13,89
293.84,104
292.54,116
291.24,128
289.95,142
288.65,158
287.35,176
286.06,200
284.76,234
283.47,253
282.17,281
280.87,320
279.58,352
278.28,385
276.98,416
275.69,442
274.39,471
273.09,493
271.80,505
270.50,511
269.20,509
267.91,501
266.61,489
265.31,468
264.02,441
262.72,411
261.43,379
260.13,343
258.83,310
257.54,293
256.24,259
254.94,224
253.65,198
252.35,187
251.05,169
249.76,146
248.46,129
247.16,121
245.87,112
244.57,99
243.27,93
241.98,79
240.68,62
239.39,59
238.09,54
236.79,49
235.50,45
234.20,39
232.90,36
231.61,37
230.31,32
229.01,29
227.72,26
226.42,20
225.12,23
223.83,24
222.53,21
221.23,17
219.94,15
218.64,14
217.35,17
216.05,13
214.75,10
213.46,10
212.16,13
210.86,11
209.57,5
208.27,1
206.97,-3
205.68,-2
204.38,3
203.08,3
201.79,-0
200.49,-3
