Created As Omnic File,BIOL 014
Raman Shift / cm-1,INT
3699.66,0
3698.36,-0
3697.06,0
3695.77,-0
3694.47,-0
3693.18,0
3691.88,-0
3690.58,-1
3689.29,-0
3687.99,-0
3686.69,-1
3685.40,-0
3684.10,-0
3682.80,-0
3681.51,-0
3680.21,0
3678.91,-0
3677.62,0
3676.32,-0
3675.02,0
3673.73,-0
3672.43,0
3671.14,-0
3669.84,1
3668.54,-0
3667.25,0
3665.95,0
3664.65,0
3663.36,0
3662.06,-0
3660.76,0
3659.47,0
3658.17,0
3656.87,-1
3655.58,0
3654.28,0
3652.98,0
3651.69,0
3650.39,1
3649.10,0
3647.80,0
3646.50,0
3645.21,0
3643.91,-0
3642.61,-0
3641.32,1
3640.02,-0
3638.72,0
3637.43,-0
3636.13,0
3634.83,-1
3633.54,0
3632.24,1
3630.94,0
3629.65,1
3628.35,0
3627.06,-0
3625.76,1
3624.46,1
3623.17,1
3621.87,1
3620.57,0
3619.28,1
3617.98,1
3616.68,1
3615.39,1
3614.09,1
3612.79,1
3611.50,1
3610.20,1
3608.90,1
3607.61,1
3606.31,0
3605.02,0
3603.72,1
3602.42,1
3601.13,1
3599.83,0
3598.53,0
3597.24,1
3595.94,1
3594.64,0
3593.35,0
3592.05,1
3590.75,1
3589.46,1
3588.16,0
3586.87,1
3585.57,1
3584.27,1
3582.98,1
3581.68,3
3580.38,7
3579.09,8
3577.79,7
3576.49,7
3575.20,5
3573.90,2
3572.60,2
3571.31,1
3570.01,1
3568.71,1
3567.42,1
3566.12,1
3564.83,2
3563.53,1
3562.23,1
3560.94,0
3559.64,0
3558.34,1
3557.05,0
3555.75,1
3554.45,1
3553.16,-0
3551.86,1
3550.56,1
3549.27,1
3547.97,1
3546.67,0
3545.38,1
3544.08,1
3542.79,1
3541.49,1
3540.19,0
3538.90,2
3537.60,1
3536.30,1
3535.01,0
3533.71,1
3532.41,1
3531.12,2
3529.82,1
3528.52,1
3527.23,2
3525.93,0
3524.63,1
3523.34,1
3522.04,2
3520.75,1
3519.45,1
3518.15,1
3516.86,1
3515.56,1
3514.26,1
3512.97,1
3511.67,1
3510.37,1
3509.08,1
3507.78,1
3506.48,2
3505.19,1
3503.89,1
3502.59,1
3501.30,1
3500.00,1
3498.71,2
3497.41,1
3496.11,1
3494.82,0
3493.52,0
3492.22,1
3490.93,1
3489.63,1
3488.33,1
3487.04,1
3485.74,1
3484.44,-0
3483.15,0
3481.85,-0
3480.55,0
3479.26,1
3477.96,0
3476.67,0
3475.37,1
3474.07,-1
3472.78,0
3471.48,-0
3470.18,-0
3468.89,-0
3467.59,-0
3466.29,0
3465.00,0
3463.70,0
3462.40,0
3461.11,0
3459.81,0
3458.51,-0
3457.22,0
3455.92,0
3454.63,0
3453.33,0
3452.03,0
3450.74,-0
3449.44,1
3448.14,-0
3446.85,-0
3445.55,1
3444.25,-0
3442.96,0
3441.66,-0
3440.36,-0
3439.07,-0
3437.77,-0
3436.47,0
3435.18,1
3433.88,0
3432.59,0
3431.29,-0
3429.99,0
3428.70,-1
3427.40,-0
3426.10,-0
3424.81,0
3423.51,-1
3422.21,-0
3420.92,-0
3419.62,0
3418.32,0
3417.03,0
3415.73,-0
3414.43,1
3413.14,-1
3411.84,-0
3410.55,-0
3409.25,0
3407.95,-0
3406.66,0
3405.36,0
3404.06,0
3402.77,0
3401.47,0
3400.17,-0
3398.88,0
3397.58,-1
3396.28,-0
3394.99,-0
3393.69,0
3392.39,-0
3391.10,-0
3389.80,-0
3388.51,0
3387.21,-0
3385.91,-1
3384.62,-0
3383.32,-0
3382.02,0
3380.73,-0
3379.43,-0
3378.13,0
3376.84,-0
3375.54,0
3374.24,-0
3372.95,0
3371.65,0
3370.35,0
3369.06,-1
3367.76,1
3366.47,-0
3365.17,0
3363.87,0
3362.58,-0
3361.28,0
3359.98,0
3358.69,-0
3357.39,1
3356.09,0
3354.80,0
3353.50,0
3352.20,-0
3350.91,-0
3349.61,-1
3348.31,1
3347.02,0
3345.72,1
3344.43,-0
3343.13,-0
3341.83,-1
3340.54,0
3339.24,0
3337.94,0
3336.65,0
3335.35,0
3334.05,-0
3332.76,-0
3331.46,-0
3330.16,0
3328.87,-0
3327.57,0
3326.27,0
3324.98,0
3323.68,1
3322.39,0
3321.09,-0
3319.79,-0
3318.50,1
3317.20,0
3315.90,0
3314.61,1
3313.31,0
3312.01,0
3310.72,0
3309.42,1
3308.12,0
3306.83,0
3305.53,-0
3304.24,0
3302.94,-0
3301.64,0
3300.35,-0
3299.05,0
3297.75,0
3296.46,-0
3295.16,0
3293.86,1
3292.57,0
3291.27,0
3289.97,0
3288.68,1
3287.38,0
3286.08,0
3284.79,0
3283.49,-0
3282.20,0
3280.90,0
3279.60,0
3278.31,-0
3277.01,0
3275.71,-0
3274.42,0
3273.12,0
3271.82,0
3270.53,-0
3269.23,-0
3267.93,-0
3266.64,1
3265.34,0
3264.04,0
3262.75,-0
3261.45,1
3260.16,0
3258.86,0
3257.56,-0
3256.27,0
3254.97,0
3253.67,-0
3252.38,1
3251.08,1
3249.78,0
3248.49,0
3247.19,0
3245.89,0
3244.60,1
3243.30,0
3242.00,0
3240.71,1
3239.41,0
3238.12,0
3236.82,-0
3235.52,1
3234.23,0
3232.93,2
3231.63,11
3230.34,3
3229.04,0
3227.74,1
3226.45,1
3225.15,0
3223.85,0
3222.56,0
3221.26,0
3219.96,1
3218.67,0
3217.37,-0
3216.08,1
3214.78,0
3213.48,1
3212.19,1
3210.89,1
3209.59,1
3208.30,0
3207.00,1
3205.70,0
3204.41,1
3203.11,0
3201.81,0
3200.52,1
3199.22,0
3197.92,0
3196.63,-0
3195.33,1
3194.04,1
3192.74,1
3191.44,-1
3190.15,0
3188.85,0
3187.55,0
3186.26,-0
3184.96,-0
3183.66,-0
3182.37,0
3181.07,0
3179.77,-0
3178.48,0
3177.18,-0
3175.88,-0
3174.59,-1
3173.29,0
3172.00,0
3170.70,0
3169.40,-0
3168.11,0
3166.81,-0
3165.51,-0
3164.22,1
3162.92,0
3161.62,-0
3160.33,-0
3159.03,1
3157.73,0
3156.44,0
3155.14,-0
3153.84,0
3152.55,0
3151.25,0
3149.96,0
3148.66,0
3147.36,-0
3146.07,0
3144.77,-1
3143.47,-0
3142.18,0
3140.88,0
3139.58,-0
3138.29,-0
3136.99,0
3135.69,-0
3134.40,-0
3133.10,-0
3131.80,0
3130.51,-1
3129.21,1
3127.92,-0
3126.62,0
3125.32,-0
3124.03,1
3122.73,-0
3121.43,-0
3120.14,-0
3118.84,-1
3117.54,0
3116.25,-0
3114.95,-0
3113.65,-1
3112.36,-0
3111.06,0
3109.76,-0
3108.47,-1
3107.17,-0
3105.88,-0
3104.58,-0
3103.28,-0
3101.99,-1
3100.69,-0
3099.39,0
3098.10,0
3096.80,-1
3095.50,-0
3094.21,-0
3092.91,-0
3091.61,0
3090.32,-0
3089.02,-1
3087.72,-0
3086.43,-0
3085.13,-1
3083.84,-1
3082.54,-0
3081.24,-1
3079.95,-1
3078.65,1
3077.35,-0
3076.06,0
3074.76,-0
3073.46,-0
3072.17,-1
3070.87,-0
3069.57,-0
3068.28,-0
3066.98,-0
3065.68,-0
3064.39,-0
3063.09,-1
3061.80,-0
3060.50,0
3059.20,-0
3057.91,-0
3056.61,-1
3055.31,-1
3054.02,-0
3052.72,0
3051.42,-1
3050.13,-1
3048.83,-0
3047.53,0
3046.24,-0
3044.94,-0
3043.65,-0
3042.35,-1
3041.05,-0
3039.76,0
3038.46,-0
3037.16,-1
3035.87,-0
3034.57,-1
3033.27,0
3031.98,0
3030.68,-0
3029.38,-0
3028.09,-0
3026.79,0
3025.49,-0
3024.20,-0
3022.90,-0
3021.61,-0
3020.31,-0
3019.01,-1
3017.72,-1
3016.42,-0
3015.12,-1
3013.83,-1
3012.53,0
3011.23,0
3009.94,-0
3008.64,0
3007.34,-0
3006.05,-1
3004.75,-0
3003.45,-1
3002.16,-0
3000.86,-1
2999.57,-1
2998.27,-1
2996.97,-0
2995.68,-1
2994.38,-0
2993.08,0
2991.79,-0
2990.49,-0
2989.19,-1
2987.90,-0
2986.60,-1
2985.30,-1
2984.01,-0
2982.71,-1
2981.41,-0
2980.12,-0
2978.82,-1
2977.53,-1
2976.23,0
2974.93,-1
2973.64,-1
2972.34,0
2971.04,-0
2969.75,-1
2968.45,-1
2967.15,-1
2965.86,-1
2964.56,0
2963.26,-1
2961.97,-0
2960.67,-1
2959.37,-0
2958.08,-0
2956.78,-0
2955.49,-0
2954.19,-1
2952.89,-1
2951.60,-0
2950.30,-0
2949.00,-1
2947.71,-1
2946.41,-0
2945.11,-1
2943.82,0
2942.52,-1
2941.22,-1
2939.93,-1
2938.63,0
2937.33,-0
2936.04,-0
2934.74,-0
2933.45,-1
2932.15,-1
2930.85,-1
2929.56,-0
2928.26,-1
2926.96,-0
2925.67,-0
2924.37,-1
2923.07,-1
2921.78,-1
2920.48,-0
2919.18,-0
2917.89,-0
2916.59,-1
2915.29,0
2914.00,-1
2912.70,-0
2911.41,-1
2910.11,-1
2908.81,-1
2907.52,-1
2906.22,-0
2904.92,-1
2903.63,1
2902.33,-0
2901.03,-0
2899.74,0
2898.44,0
2897.14,-0
2895.85,-1
2894.55,0
2893.25,-1
2891.96,-0
2890.66,-0
2889.37,-1
2888.07,-1
2886.77,-0
2885.48,0
2884.18,0
2882.88,-1
2881.59,-1
2880.29,-0
2878.99,-1
2877.70,-1
2876.40,-1
2875.10,-0
2873.81,1
2872.51,-0
2871.21,1
2869.92,-0
2868.62,0
2867.33,1
2866.03,-1
2864.73,-0
2863.44,-0
2862.14,-1
2860.84,-0
2859.55,-0
2858.25,-0
2856.95,-0
2855.66,-1
2854.36,0
2853.06,0
2851.77,-0
2850.47,-0
2849.17,-0
2847.88,0
2846.58,-1
2845.29,-0
2843.99,1
2842.69,-0
2841.40,-0
2840.10,-1
2838.80,-1
2837.51,-0
2836.21,-1
2834.91,-0
2833.62,-0
2832.32,-0
2831.02,0
2829.73,-0
2828.43,-1
2827.13,0
2825.84,-0
2824.54,-0
2823.25,-0
2821.95,-0
2820.65,-1
2819.36,-0
2818.06,0
2816.76,0
2815.47,0
2814.17,-1
2812.87,0
2811.58,0
2810.28,0
2808.98,0
2807.69,-1
2806.39,-0
2805.09,-0
2803.80,0
2802.50,0
2801.21,-1
2799.91,-0
2798.61,-1
2797.32,-0
2796.02,0
2794.72,-1
2793.43,0
2792.13,-0
2790.83,-0
2789.54,0
2788.24,-1
2786.94,-0
2785.65,-1
2784.35,-0
2783.06,0
2781.76,-0
2780.46,-0
2779.17,0
2777.87,-0
2776.57,0
2775.28,-0
2773.98,0
2772.68,0
2771.39,-0
2770.09,-0
2768.79,-0
2767.50,0
2766.20,-0
2764.90,-0
2763.61,-0
2762.31,0
2761.02,1
2759.72,1
2758.42,-0
2757.13,0
2755.83,0
2754.53,-0
2753.24,0
2751.94,-0
2750.64,0
2749.35,-0
2748.05,-1
2746.75,0
2745.46,-0
2744.16,1
2742.86,0
2741.57,1
2740.27,-0
2738.98,0
2737.68,-0
2736.38,0
2735.09,-0
2733.79,-0
2732.49,0
2731.20,0
2729.90,-0
2728.60,1
2727.31,0
2726.01,-0
2724.71,1
2723.42,1
2722.12,0
2720.82,1
2719.53,-0
2718.23,1
2716.94,-0
2715.64,0
2714.34,1
2713.05,-0
2711.75,0
2710.45,1
2709.16,0
2707.86,-0
2706.56,1
2705.27,0
2703.97,-0
2702.67,0
2701.38,0
2700.08,0
2698.78,0
2697.49,0
2696.19,-0
2694.90,0
2693.60,0
2692.30,1
2691.01,1
2689.71,0
2688.41,1
2687.12,1
2685.82,0
2684.52,1
2683.23,1
2681.93,1
2680.63,1
2679.34,1
2678.04,0
2676.74,0
2675.45,0
2674.15,1
2672.86,1
2671.56,1
2670.26,0
2668.97,0
2667.67,-0
2666.37,0
2665.08,-0
2663.78,1
2662.48,0
2661.19,-0
2659.89,0
2658.59,-0
2657.30,-0
2656.00,1
2654.70,0
2653.41,-0
2652.11,0
2650.82,-0
2649.52,-0
2648.22,0
2646.93,-0
2645.63,0
2644.33,-0
2643.04,-0
2641.74,0
2640.44,-0
2639.15,-0
2637.85,0
2636.55,1
2635.26,1
2633.96,0
2632.66,1
2631.37,0
2630.07,1
2628.78,0
2627.48,0
2626.18,0
2624.89,-0
2623.59,0
2622.29,-1
2621.00,0
2619.70,1
2618.40,1
2617.11,0
2615.81,0
2614.51,0
2613.22,0
2611.92,0
2610.62,0
2609.33,-0
2608.03,-0
2606.74,0
2605.44,0
2604.14,0
2602.85,-0
2601.55,0
2600.25,0
2598.96,1
2597.66,0
2596.36,-1
2595.07,-0
2593.77,0
2592.47,0
2591.18,-0
2589.88,-0
2588.58,0
2587.29,-0
2585.99,-0
2584.70,-0
2583.40,-0
2582.10,0
2580.81,-1
2579.51,0
2578.21,0
2576.92,0
2575.62,-0
2574.32,-1
2573.03,0
2571.73,-0
2570.43,-0
2569.14,-0
2567.84,-1
2566.54,-1
2565.25,-1
2563.95,-0
2562.66,-1
2561.36,0
2560.06,0
2558.77,-0
2557.47,1
2556.17,-0
2554.88,-0
2553.58,0
2552.28,-0
2550.99,0
2549.69,-0
2548.39,-0
2547.10,1
2545.80,1
2544.50,1
2543.21,1
2541.91,1
2540.62,1
2539.32,1
2538.02,1
2536.73,1
2535.43,1
2534.13,1
2532.84,0
2531.54,0
2530.24,0
2528.95,-0
2527.65,1
2526.35,0
2525.06,0
2523.76,-1
2522.46,-0
2521.17,0
2519.87,-0
2518.58,-1
2517.28,-0
2515.98,-0
2514.69,-0
2513.39,0
2512.09,-1
2510.80,-1
2509.50,-0
2508.20,-0
2506.91,-0
2505.61,-0
2504.31,-0
2503.02,-1
2501.72,-1
2500.43,0
2499.13,-1
2497.83,0
2496.54,-0
2495.24,0
2493.94,-0
2492.65,-0
2491.35,-0
2490.05,-0
2488.76,-0
2487.46,0
2486.16,0
2484.87,-0
2483.57,-0
2482.27,-1
2480.98,0
2479.68,-0
2478.39,-0
2477.09,-0
2475.79,-0
2474.50,-0
2473.20,-0
2471.90,0
2470.61,-0
2469.31,-1
2468.01,-0
2466.72,-0
2465.42,1
2464.12,-0
2462.83,1
2461.53,-0
2460.23,0
2458.94,0
2457.64,-0
2456.35,-0
2455.05,0
2453.75,-0
2452.46,0
2451.16,-0
2449.86,-0
2448.57,-0
2447.27,-0
2445.97,-0
2444.68,-0
2443.38,-0
2442.08,0
2440.79,0
2439.49,0
2438.19,0
2436.90,0
2435.60,0
2434.31,0
2433.01,-0
2431.71,0
2430.42,-0
2429.12,0
2427.82,-0
2426.53,0
2425.23,0
2423.93,0
2422.64,0
2421.34,0
2420.04,1
2418.75,0
2417.45,0
2416.15,0
2414.86,0
2413.56,1
2412.27,1
2410.97,1
2409.67,0
2408.38,0
2407.08,0
2405.78,0
2404.49,1
2403.19,1
2401.89,0
2400.60,1
2399.30,0
2398.00,0
2396.71,-0
2395.41,0
2394.11,0
2392.82,0
2391.52,1
2390.23,1
2388.93,1
2387.63,0
2386.34,0
2385.04,0
2383.74,0
2382.45,0
2381.15,0
2379.85,1
2378.56,1
2377.26,0
2375.96,0
2374.67,1
2373.37,-0
2372.07,-0
2370.78,1
2369.48,1
2368.19,1
2366.89,1
2365.59,0
2364.30,0
2363.00,0
2361.70,1
2360.41,0
2359.11,-0
2357.81,0
2356.52,0
2355.22,1
2353.92,2
2352.63,1
2351.33,1
2350.03,1
2348.74,1
2347.44,1
2346.15,0
2344.85,0
2343.55,0
2342.26,0
2340.96,1
2339.66,1
2338.37,1
2337.07,0
2335.77,1
2334.48,0
2333.18,1
2331.88,1
2330.59,1
2329.29,0
2327.99,1
2326.70,0
2325.40,0
2324.11,1
2322.81,0
2321.51,1
2320.22,0
2318.92,1
2317.62,1
2316.33,1
2315.03,1
2313.73,0
2312.44,0
2311.14,1
2309.84,0
2308.55,0
2307.25,-0
2305.95,0
2304.66,0
2303.36,0
2302.07,0
2300.77,-0
2299.47,0
2298.18,1
2296.88,0
2295.58,1
2294.29,1
2292.99,0
2291.69,1
2290.40,1
2289.10,-0
2287.80,0
2286.51,0
2285.21,1
2283.91,0
2282.62,1
2281.32,0
2280.03,0
2278.73,1
2277.43,0
2276.14,1
2274.84,0
2273.54,-0
2272.25,0
2270.95,1
2269.65,0
2268.36,0
2267.06,1
2265.76,1
2264.47,1
2263.17,0
2261.87,0
2260.58,0
2259.28,0
2257.99,1
2256.69,1
2255.39,1
2254.10,1
2252.80,0
2251.50,0
2250.21,0
2248.91,1
2247.61,1
2246.32,1
2245.02,0
2243.72,1
2242.43,0
2241.13,1
2239.84,1
2238.54,0
2237.24,1
2235.95,1
2234.65,0
2233.35,0
2232.06,-0
2230.76,-0
2229.46,0
2228.17,0
2226.87,0
2225.57,1
2224.28,1
2222.98,0
2221.68,1
2220.39,1
2219.09,0
2217.80,1
2216.50,1
2215.20,1
2213.91,0
2212.61,0
2211.31,1
2210.02,0
2208.72,-0
2207.42,1
2206.13,0
2204.83,-0
2203.53,0
2202.24,0
2200.94,1
2199.64,2
2198.35,2
2197.05,0
2195.76,0
2194.46,1
2193.16,1
2191.87,1
2190.57,0
2189.27,-0
2187.98,0
2186.68,1
2185.38,-0
2184.09,1
2182.79,0
2181.49,0
2180.20,0
2178.90,1
2177.60,1
2176.31,0
2175.01,1
2173.72,0
2172.42,0
2171.12,0
2169.83,1
2168.53,1
2167.23,1
2165.94,-0
2164.64,1
2163.34,-1
2162.05,0
2160.75,0
2159.45,1
2158.16,0
2156.86,1
2155.56,1
2154.27,-0
2152.97,1
2151.68,1
2150.38,0
2149.08,0
2147.79,0
2146.49,0
2145.19,-0
2143.90,0
2142.60,0
2141.30,0
2140.01,1
2138.71,-1
2137.41,-0
2136.12,1
2134.82,1
2133.52,1
2132.23,0
2130.93,0
2129.64,0
2128.34,-0
2127.04,0
2125.75,1
2124.45,0
2123.15,1
2121.86,0
2120.56,0
2119.26,1
2117.97,0
2116.67,2
2115.37,1
2114.08,0
2112.78,1
2111.48,1
2110.19,1
2108.89,1
2107.60,1
2106.30,0
2105.00,0
2103.71,0
2102.41,-0
2101.11,0
2099.82,0
2098.52,1
2097.22,1
2095.93,1
2094.63,-0
2093.33,-0
2092.04,1
2090.74,1
2089.44,1
2088.15,1
2086.85,0
2085.56,0
2084.26,1
2082.96,1
2081.67,-0
2080.37,0
2079.07,1
2077.78,-0
2076.48,0
2075.18,-0
2073.89,-1
2072.59,0
2071.29,0
2070.00,-1
2068.70,0
2067.40,0
2066.11,-0
2064.81,0
2063.52,-0
2062.22,-1
2060.92,0
2059.63,-1
2058.33,-0
2057.03,-0
2055.74,0
2054.44,-0
2053.14,0
2051.85,-0
2050.55,0
2049.25,0
2047.96,-0
2046.66,0
2045.36,-0
2044.07,-0
2042.77,1
2041.48,-0
2040.18,1
2038.88,1
2037.59,0
2036.29,-1
2034.99,1
2033.70,-1
2032.40,0
2031.10,-0
2029.81,-0
2028.51,1
2027.21,0
2025.92,-0
2024.62,-1
2023.32,-1
2022.03,-1
2020.73,-1
2019.44,-1
2018.14,0
2016.84,0
2015.55,-1
2014.25,-0
2012.95,0
2011.66,-0
2010.36,-1
2009.06,-0
2007.77,0
2006.47,-0
2005.17,-0
2003.88,-0
2002.58,0
2001.28,-0
1999.99,-0
1998.69,-0
1997.40,-0
1996.10,-0
1994.80,-0
1993.51,0
1992.21,-1
1990.91,-0
1989.62,0
1988.32,-1
1987.02,0
1985.73,1
1984.43,1
1983.13,1
1981.84,-0
1980.54,-0
1979.24,-0
1977.95,1
1976.65,0
1975.36,1
1974.06,-0
1972.76,-1
1971.47,1
1970.17,0
1968.87,1
1967.58,0
1966.28,1
1964.98,-0
1963.69,-1
1962.39,-0
1961.09,1
1959.80,-0
1958.50,0
1957.21,1
1955.91,0
1954.61,1
1953.32,1
1952.02,1
1950.72,1
1949.43,1
1948.13,1
1946.83,1
1945.54,1
1944.24,1
1942.94,1
1941.65,-0
1940.35,1
1939.05,1
1937.76,1
1936.46,1
1935.17,1
1933.87,-0
1932.57,1
1931.28,1
1929.98,0
1928.68,0
1927.39,0
1926.09,-0
1924.79,0
1923.50,0
1922.20,1
1920.90,1
1919.61,0
1918.31,1
1917.01,0
1915.72,-0
1914.42,0
1913.13,1
1911.83,0
1910.53,0
1909.24,1
1907.94,0
1906.64,1
1905.35,0
1904.05,0
1902.75,0
1901.46,0
1900.16,0
1898.86,0
1897.57,0
1896.27,1
1894.97,-0
1893.68,1
1892.38,2
1891.09,1
1889.79,1
1888.49,1
1887.20,1
1885.90,0
1884.60,0
1883.31,0
1882.01,0
1880.71,1
1879.42,0
1878.12,0
1876.82,0
1875.53,0
1874.23,1
1872.93,1
1871.64,2
1870.34,1
1869.05,0
1867.75,1
1866.45,1
1865.16,1
1863.86,1
1862.56,1
1861.27,1
1859.97,-0
1858.67,1
1857.38,1
1856.08,0
1854.78,0
1853.49,0
1852.19,0
1850.89,0
1849.60,1
1848.30,1
1847.01,0
1845.71,1
1844.41,1
1843.12,0
1841.82,-1
1840.52,-0
1839.23,-0
1837.93,0
1836.63,-1
1835.34,-1
1834.04,0
1832.74,-1
1831.45,-1
1830.15,-0
1828.85,-0
1827.56,-0
1826.26,0
1824.97,0
1823.67,-0
1822.37,-0
1821.08,-0
1819.78,1
1818.48,-0
1817.19,-0
1815.89,-1
1814.59,-1
1813.30,1
1812.00,-0
1810.70,0
1809.41,0
1808.11,-0
1806.81,-0
1805.52,-0
1804.22,-0
1802.93,1
1801.63,-0
1800.33,0
1799.04,1
1797.74,2
1796.44,0
1795.15,0
1793.85,0
1792.55,1
1791.26,1
1789.96,1
1788.66,-0
1787.37,-0
1786.07,-0
1784.77,-1
1783.48,-1
1782.18,-0
1780.89,-0
1779.59,0
1778.29,0
1777.00,-0
1775.70,1
1774.40,1
1773.11,2
1771.81,0
1770.51,-0
1769.22,1
1767.92,1
1766.62,1
1765.33,1
1764.03,1
1762.73,0
1761.44,1
1760.14,2
1758.85,-1
1757.55,0
1756.25,-1
1754.96,1
1753.66,0
1752.36,0
1751.07,0
1749.77,0
1748.47,-1
1747.18,-0
1745.88,0
1744.58,-0
1743.29,0
1741.99,-0
1740.69,1
1739.40,-0
1738.10,-0
1736.81,1
1735.51,1
1734.21,-1
1732.92,0
1731.62,0
1730.32,0
1729.03,0
1727.73,1
1726.43,0
1725.14,-0
1723.84,0
1722.54,-1
1721.25,1
1719.95,-0
1718.65,1
1717.36,-0
1716.06,0
1714.77,0
1713.47,-1
1712.17,-0
1710.88,1
1709.58,1
1708.28,1
1706.99,0
1705.69,2
1704.39,1
1703.10,1
1701.80,0
1700.50,0
1699.21,0
1697.91,1
1696.62,1
1695.32,0
1694.02,0
1692.73,1
1691.43,2
1690.13,2
1688.84,1
1687.54,2
1686.24,-0
1684.95,1
1683.65,1
1682.35,1
1681.06,1
1679.76,1
1678.46,0
1677.17,1
1675.87,1
1674.58,2
1673.28,2
1671.98,2
1670.69,-0
1669.39,0
1668.09,3
1666.80,2
1665.50,1
1664.20,0
1662.91,0
1661.61,1
1660.31,1
1659.02,0
1657.72,-1
1656.42,-0
1655.13,-1
1653.83,0
1652.54,-1
1651.24,-1
1649.94,-0
1648.65,-1
1647.35,-2
1646.05,-0
1644.76,0
1643.46,-1
1642.16,-1
1640.87,-2
1639.57,-2
1638.27,-0
1636.98,-1
1635.68,-1
1634.38,-1
1633.09,-1
1631.79,-2
1630.50,-1
1629.20,-1
1627.90,-1
1626.61,-2
1625.31,-2
1624.01,-2
1622.72,-1
1621.42,0
1620.12,0
1618.83,-1
1617.53,-1
1616.23,-1
1614.94,-2
1613.64,-2
1612.34,-2
1611.05,-2
1609.75,-2
1608.46,-2
1607.16,-1
1605.86,-1
1604.57,-1
1603.27,-0
1601.97,-1
1600.68,-0
1599.38,-0
1598.08,0
1596.79,-0
1595.49,-2
1594.19,-2
1592.90,-0
1591.60,-1
1590.30,-2
1589.01,-1
1587.71,-1
1586.42,-1
1585.12,-1
1583.82,0
1582.53,-1
1581.23,0
1579.93,1
1578.64,-0
1577.34,-0
1576.04,1
1574.75,0
1573.45,2
1572.15,2
1570.86,1
1569.56,0
1568.26,-1
1566.97,-1
1565.67,-0
1564.38,0
1563.08,-0
1561.78,0
1560.49,-0
1559.19,-0
1557.89,0
1556.60,-0
1555.30,-0
1554.00,0
1552.71,0
1551.41,-1
1550.11,1
1548.82,2
1547.52,-0
1546.22,1
1544.93,-0
1543.63,0
1542.34,1
1541.04,1
1539.74,1
1538.45,-0
1537.15,0
1535.85,-1
1534.56,1
1533.26,0
1531.96,-1
1530.67,-0
1529.37,1
1528.07,1
1526.78,-0
1525.48,-0
1524.18,1
1522.89,0
1521.59,-0
1520.30,0
1519.00,0
1517.70,0
1516.41,0
1515.11,-0
1513.81,-0
1512.52,-1
1511.22,-0
1509.92,1
1508.63,1
1507.33,0
1506.03,1
1504.74,1
1503.44,-0
1502.14,1
1500.85,-0
1499.55,-0
1498.26,1
1496.96,0
1495.66,1
1494.37,1
1493.07,-1
1491.77,-0
1490.48,1
1489.18,-1
1487.88,1
1486.59,1
1485.29,1
1483.99,1
1482.70,1
1481.40,1
1480.10,1
1478.81,1
1477.51,1
1476.22,1
1474.92,1
1473.62,2
1472.33,2
1471.03,1
1469.73,-0
1468.44,2
1467.14,1
1465.84,0
1464.55,2
1463.25,2
1461.95,2
1460.66,2
1459.36,3
1458.06,3
1456.77,3
1455.47,4
1454.18,4
1452.88,3
1451.58,2
1450.29,1
1448.99,1
1447.69,3
1446.40,3
1445.10,1
1443.80,1
1442.51,0
1441.21,-0
1439.91,1
1438.62,2
1437.32,1
1436.02,1
1434.73,1
1433.43,1
1432.14,2
1430.84,0
1429.54,-2
1428.25,0
1426.95,1
1425.65,-0
1424.36,1
1423.06,1
1421.76,-0
1420.47,0
1419.17,2
1417.87,1
1416.58,2
1415.28,1
1413.99,0
1412.69,1
1411.39,1
1410.10,-0
1408.80,1
1407.50,2
1406.21,0
1404.91,0
1403.61,0
1402.32,0
1401.02,1
1399.72,1
1398.43,-1
1397.13,0
1395.83,-1
1394.54,-0
1393.24,1
1391.95,2
1390.65,1
1389.35,-2
1388.06,-2
1386.76,-1
1385.46,-0
1384.17,-2
1382.87,-0
1381.57,1
1380.28,0
1378.98,-1
1377.68,-1
1376.39,0
1375.09,-1
1373.79,-0
1372.50,1
1371.20,1
1369.91,0
1368.61,-1
1367.31,-2
1366.02,-1
1364.72,1
1363.42,0
1362.13,-1
1360.83,-0
1359.53,-1
1358.24,0
1356.94,-2
1355.64,0
1354.35,1
1353.05,0
1351.75,0
1350.46,1
1349.16,-1
1347.87,-1
1346.57,-1
1345.27,-0
1343.98,1
1342.68,0
1341.38,-0
1340.09,1
1338.79,1
1337.49,1
1336.20,1
1334.90,-0
1333.60,-0
1332.31,1
1331.01,2
1329.71,1
1328.42,2
1327.12,2
1325.83,1
1324.53,2
1323.23,2
1321.94,1
1320.64,2
1319.34,2
1318.05,2
1316.75,2
1315.45,3
1314.16,4
1312.86,2
1311.56,5
1310.27,4
1308.97,4
1307.67,5
1306.38,5
1305.08,4
1303.79,5
1302.49,4
1301.19,3
1299.90,3
1298.60,5
1297.30,5
1296.01,5
1294.71,6
1293.41,5
1292.12,5
1290.82,5
1289.52,5
1288.23,5
1286.93,6
1285.63,6
1284.34,5
1283.04,7
1281.75,8
1280.45,8
1279.15,10
1277.86,11
1276.56,9
1275.26,9
1273.97,10
1272.67,10
1271.37,10
1270.08,12
1268.78,13
1267.48,13
1266.19,12
1264.89,12
1263.59,13
1262.30,14
1261.00,13
1259.71,15
1258.41,14
1257.11,15
1255.82,15
1254.52,13
1253.22,13
1251.93,15
1250.63,16
1249.33,15
1248.04,15
1246.74,15
1245.44,14
1244.15,16
1242.85,16
1241.55,14
1240.26,14
1238.96,15
1237.67,16
1236.37,14
1235.07,14
1233.78,15
1232.48,13
1231.18,13
1229.89,13
1228.59,13
1227.29,12
1226.00,11
1224.70,10
1223.40,10
1222.11,12
1220.81,11
1219.51,8
1218.22,9
1216.92,9
1215.63,9
1214.33,9
1213.03,9
1211.74,8
1210.44,8
1209.14,7
1207.85,7
1206.55,6
1205.25,4
1203.96,5
1202.66,6
1201.36,4
1200.07,5
1198.77,4
1197.47,3
1196.18,3
1194.88,1
1193.59,0
1192.29,-0
1190.99,-1
1189.70,-1
1188.40,0
1187.10,-1
1185.81,-0
1184.51,0
1183.21,1
1181.92,0
1180.62,-1
1179.32,0
1178.03,0
1176.73,-1
1175.43,-0
1174.14,0
1172.84,-0
1171.55,1
1170.25,-1
1168.95,-0
1167.66,-1
1166.36,-2
1165.06,-1
1163.77,1
1162.47,1
1161.17,2
1159.88,1
1158.58,-1
1157.28,-1
1155.99,1
1154.69,0
1153.40,-1
1152.10,-0
1150.80,1
1149.51,1
1148.21,0
1146.91,-1
1145.62,0
1144.32,1
1143.02,0
1141.73,1
1140.43,2
1139.13,1
1137.84,2
1136.54,1
1135.24,-1
1133.95,-1
1132.65,-0
1131.36,-1
1130.06,2
1128.76,3
1127.47,2
1126.17,1
1124.87,3
1123.58,2
1122.28,2
1120.98,3
1119.69,5
1118.39,2
1117.09,2
1115.80,2
1114.50,3
1113.20,3
1111.91,3
1110.61,2
1109.32,3
1108.02,3
1106.72,3
1105.43,2
1104.13,2
1102.83,3
1101.54,5
1100.24,5
1098.94,4
1097.65,5
1096.35,7
1095.05,8
1093.76,9
1092.46,10
1091.16,13
1089.87,18
1088.57,25
1087.28,49
1085.98,91
1084.68,165
1083.39,275
1082.09,409
1080.79,540
1079.50,663
1078.20,763
1076.90,810
1075.61,768
1074.31,612
1073.01,419
1071.72,258
1070.42,152
1069.12,96
1067.83,66
1066.53,46
1065.24,35
1063.94,29
1062.64,24
1061.35,18
1060.05,16
1058.75,14
1057.46,11
1056.16,9
1054.86,9
1053.57,7
1052.27,6
1050.97,6
1049.68,5
1048.38,3
1047.08,2
1045.79,1
1044.49,2
1043.20,1
1041.90,0
1040.60,-0
1039.31,1
1038.01,0
1036.71,0
1035.42,-0
1034.12,-0
1032.82,1
1031.53,-1
1030.23,-2
1028.93,-2
1027.64,-2
1026.34,-1
1025.04,-1
1023.75,-1
1022.45,-1
1021.16,-2
1019.86,-0
1018.56,-1
1017.27,-0
1015.97,-0
1014.67,-1
1013.38,-1
1012.08,0
1010.78,-1
1009.49,-1
1008.19,0
1006.89,2
1005.60,-1
1004.30,0
1003.00,1
1001.71,1
1000.41,1
999.12,2
997.82,2
996.52,2
995.23,1
993.93,1
992.63,1
991.34,0
990.04,0
988.74,-0
987.45,-1
986.15,0
984.85,0
983.56,-0
982.26,-0
980.96,1
979.67,1
978.37,-0
977.08,-1
975.78,-1
974.48,0
973.19,1
971.89,0
970.59,-1
969.30,-2
968.00,-1
966.70,-0
965.41,-1
964.11,-1
962.81,-2
961.52,-2
960.22,-0
958.92,-2
957.63,-1
956.33,-1
955.04,-0
953.74,1
952.44,1
951.15,0
949.85,1
948.55,1
947.26,-0
945.96,-0
944.66,-0
943.37,-0
942.07,-1
940.77,-2
939.48,1
938.18,-1
936.88,-2
935.59,-1
934.29,1
933.00,-1
931.70,1
930.40,1
929.11,-0
927.81,-1
926.51,-0
925.22,-0
923.92,-1
922.62,-1
921.33,-1
920.03,-0
918.73,1
917.44,1
916.14,1
914.84,0
913.55,-1
912.25,0
910.96,0
909.66,-1
908.36,-1
907.07,-1
905.77,1
904.47,1
903.18,1
901.88,1
900.58,1
899.29,1
897.99,1
896.69,-0
895.40,0
894.10,-2
892.80,-1
891.51,1
890.21,1
888.92,2
887.62,0
886.32,-1
885.03,-1
883.73,0
882.43,-2
881.14,-1
879.84,0
878.54,0
877.25,0
875.95,1
874.65,1
873.36,2
872.06,2
870.77,1
869.47,2
868.17,2
866.88,2
865.58,1
864.28,0
862.99,1
861.69,1
860.39,-0
859.10,1
857.80,1
856.50,2
855.21,1
853.91,0
852.61,2
851.32,1
850.02,1
848.73,2
847.43,3
846.13,4
844.84,2
843.54,1
842.24,2
840.95,1
839.65,2
838.35,0
837.06,-0
835.76,1
834.46,0
833.17,-1
831.87,-0
830.57,1
829.28,-1
827.98,0
826.69,1
825.39,1
824.09,-0
822.80,1
821.50,2
820.20,0
818.91,-1
817.61,0
816.31,1
815.02,0
813.72,1
812.42,1
811.13,-2
809.83,-0
808.53,-0
807.24,-0
805.94,-0
804.65,0
803.35,-1
802.05,0
800.76,1
799.46,0
798.16,1
796.87,1
795.57,0
794.27,1
792.98,1
791.68,-0
790.38,0
789.09,0
787.79,-1
786.49,-2
785.20,-1
783.90,1
782.61,1
781.31,1
780.01,-2
778.72,-1
777.42,1
776.12,0
774.83,0
773.53,0
772.23,-1
770.94,-2
769.64,-0
768.34,-1
767.05,0
765.75,1
764.45,0
763.16,0
761.86,0
760.57,0
759.27,-0
757.97,-1
756.68,-1
755.38,-1
754.08,-1
752.79,-2
751.49,0
750.19,2
748.90,1
747.60,-2
746.30,-1
745.01,-1
743.71,-1
742.41,-1
741.12,-1
739.82,0
738.53,0
737.23,0
735.93,2
734.64,1
733.34,1
732.04,0
730.75,-0
729.45,-2
728.15,0
726.86,1
725.56,-1
724.26,-0
722.97,1
721.67,3
720.37,4
719.08,3
717.78,3
716.49,3
715.19,4
713.89,7
712.60,8
711.30,9
710.00,9
708.71,11
707.41,16
706.11,24
704.82,36
703.52,53
702.22,76
700.93,101
699.63,129
698.33,157
697.04,180
695.74,196
694.45,195
693.15,180
691.85,157
690.56,127
689.26,97
687.96,68
686.67,41
685.37,27
684.07,18
682.78,14
681.48,11
680.18,6
678.89,5
677.59,4
676.29,4
675.00,0
673.70,0
672.41,0
671.11,-0
669.81,-2
668.52,-3
667.22,-3
665.92,-2
664.63,-1
663.33,-4
662.03,-1
660.74,-1
659.44,-3
658.14,-4
656.85,-1
655.55,-1
654.25,-3
652.96,-2
651.66,-2
650.37,-2
649.07,-3
647.77,-3
646.48,-3
645.18,-5
643.88,-5
642.59,-1
641.29,-2
639.99,-1
638.70,-0
637.40,-0
636.10,0
634.81,-1
633.51,-1
632.21,-1
630.92,-2
629.62,-2
628.33,-2
627.03,-1
625.73,-1
624.44,-2
623.14,-3
621.84,-3
620.55,-1
619.25,1
617.95,1
616.66,-1
615.36,-2
614.06,-2
612.77,-1
611.47,-1
610.18,-0
608.88,0
607.58,-2
606.29,-4
604.99,0
603.69,0
602.40,1
601.10,2
599.80,3
598.51,1
597.21,-0
595.91,0
594.62,-0
593.32,-1
592.02,-2
590.73,-2
589.43,-2
588.14,-1
586.84,-0
585.54,-2
584.25,-3
582.95,-4
581.65,-5
580.36,-5
579.06,-4
577.76,-3
576.47,-4
575.17,-5
573.87,-4
572.58,-1
571.28,0
569.98,1
568.69,-0
567.39,1
566.10,3
564.80,4
563.50,2
562.21,2
560.91,2
559.61,1
558.32,2
557.02,3
555.72,3
554.43,2
553.13,3
551.83,4
550.54,4
549.24,3
547.94,0
546.65,3
545.35,5
544.06,2
542.76,1
541.46,0
540.17,-1
538.87,0
537.57,3
536.28,3
534.98,2
533.68,1
532.39,0
531.09,1
529.79,1
528.50,-1
527.20,-0
525.90,-0
524.61,-1
523.31,-3
522.02,-1
520.72,0
519.42,1
518.13,3
516.83,1
515.53,-0
514.24,-1
512.94,-1
511.64,-2
510.35,-1
509.05,1
507.75,-1
506.46,-1
505.16,0
503.86,1
502.57,1
501.27,2
499.98,3
498.68,4
497.38,6
496.09,4
494.79,4
493.49,10
492.20,14
490.90,16
489.60,18
488.31,23
487.01,24
485.71,26
484.42,27
483.12,25
481.82,26
480.53,23
479.23,18
477.94,17
476.64,15
475.34,13
474.05,11
472.75,11
471.45,10
470.16,10
468.86,12
467.56,12
466.27,11
464.97,12
463.67,15
462.38,16
461.08,18
459.78,19
458.49,15
457.19,16
455.90,18
454.60,20
453.30,24
452.01,26
450.71,24
449.41,19
448.12,22
446.82,26
445.52,31
444.23,36
442.93,35
441.63,33
440.34,32
439.04,33
437.74,30
436.45,28
435.15,27
433.86,28
432.56,31
431.26,31
429.97,28
428.67,19
427.37,17
426.08,17
424.78,17
423.48,15
422.19,17
420.89,25
419.59,37
418.30,39
417.00,40
415.70,43
414.41,43
413.11,42
411.82,43
410.52,47
409.22,47
407.93,46
406.63,47
405.33,51
404.04,47
402.74,40
401.44,32
400.15,23
398.85,20
397.55,19
396.26,18
394.96,25
393.66,27
392.37,25
391.07,28
389.78,23
388.48,17
387.18,13
385.89,14
384.59,14
383.29,15
382.00,18
380.70,16
379.40,16
378.11,19
376.81,18
375.51,13
374.22,8
372.92,5
371.62,4
370.33,5
369.03,6
367.74,5
366.44,5
365.14,6
363.85,5
362.55,5
361.25,-0
359.96,-3
358.66,-2
357.36,-1
356.07,-1
354.77,-1
353.47,1
352.18,3
350.88,4
349.59,4
348.29,2
346.99,0
345.70,-1
344.40,-3
343.10,-4
341.81,-3
340.51,-1
339.21,-1
337.92,1
336.62,2
335.32,3
334.03,-1
332.73,-3
331.43,-4
330.14,1
328.84,1
327.55,0
326.25,-1
324.95,-1
323.66,3
322.36,7
321.06,9
319.77,5
318.47,2
317.17,-0
315.88,-7
314.58,-5
313.28,1
311.99,3
310.69,3
309.39,5
308.10,7
306.80,-3
305.51,-7
304.21,-5
302.91,1
301.62,2
300.32,6
299.02,12
297.73,10
296.43,8
295.13,5
293.84,-0
292.54,-1
291.24,0
289.95,3
288.65,11
287.35,15
286.06,18
284.76,20
283.47,17
282.17,16
280.87,20
279.58,23
278.28,26
276.98,31
275.69,41
274.39,48
273.09,53
271.80,54
270.50,46
269.20,46
267.91,51
266.61,53
265.31,56
264.02,56
262.72,50
261.43,46
260.13,40
258.83,34
257.54,31
256.24,30
254.94,30
253.65,30
252.35,29
251.05,22
249.76,15
248.46,17
247.16,13
245.87,9
244.57,7
243.27,6
241.98,6
240.68,6
239.39,3
238.09,-2
236.79,-3
235.50,2
234.20,-1
232.90,-2
231.61,-0
230.31,3
229.01,1
227.72,1
226.42,10
225.12,19
223.83,18
222.53,6
221.23,11
219.94,21
218.64,33
217.35,42
216.05,53
214.75,67
213.46,84
212.16,94
210.86,109
209.57,128
208.27,150
206.97,166
205.68,178
204.38,189
203.08,194
201.79,198
200.49,201
